# 1304     AichiSR QXAFS
# Start     : 8.9544
# End       : 9.0544
# Dir       : Backward
# Points    : 300
# ScanTime  : 1.01549
# Date      : 13.04.23 23:25
# Ring Cur. : 1[mA]
12.7557	12.6123	0.0010108	0.00260628
12.7562	12.6128	-7.80926e-07	0.00347094
12.7566	12.6132	-0.000712806	0.00417836
12.7571	12.6137	-0.00064432	0.00340974
12.7576	12.6142	-0.000666525	0.00215542
12.7581	12.6146	0.00100393	0.00266651
12.7585	12.6151	1.83561e-05	0.00347513
12.759	12.6156	-0.000642786	0.0042408
12.7595	12.6161	-0.000679598	0.00346235
12.7599	12.6165	-0.000695935	0.00215043
12.7604	12.617	0.00104381	0.00276787
12.7609	12.6175	-0.000115085	0.00355748
12.7614	12.618	-0.000748084	0.00413632
12.7618	12.6184	-0.00064992	0.00345365
12.7623	12.6189	-0.000680061	0.00226859
12.7628	12.6194	0.000963253	0.00277017
12.7632	12.6198	-4.81327e-05	0.00361213
12.7637	12.6203	-0.000799502	0.00425604
12.7642	12.6208	-0.000524416	0.00343825
12.7647	12.6213	-0.000542821	0.00208783
12.7651	12.6218	0.000922839	0.00266667
12.7656	12.6222	1.70898e-05	0.00358706
12.7661	12.6227	-0.00080537	0.0041178
12.7666	12.6231	-0.000504209	0.00329936
12.767	12.6236	-0.000543356	0.00212117
12.7675	12.6241	0.000962254	0.00268176
12.768	12.6246	-5.27341e-05	0.00365417
12.7684	12.6251	-0.000994563	0.00415312
12.7689	12.6255	-0.000558962	0.00343481
12.7694	12.626	-0.00052108	0.00212519
12.7699	12.6265	0.000890165	0.00284228
12.7703	12.627	3.82956e-05	0.00360902
12.7708	12.6274	-0.00098816	0.00411796
12.7713	12.6279	-0.00039711	0.00328223
12.7717	12.6284	-0.000409112	0.00232448
12.7722	12.6289	0.00082134	0.00277877
12.7727	12.6293	-4.22649e-05	0.00384067
12.7732	12.6298	-0.00107379	0.00401472
12.7736	12.6303	-0.000439254	0.00332148
12.7741	12.6307	-0.000411913	0.00207586
12.7746	12.6312	0.00075519	0.00278762
12.7751	12.6317	1.52885e-05	0.0038832
12.7755	12.6322	-0.00104825	0.00396834
12.776	12.6326	-0.000435187	0.00313481
12.7765	12.6331	-0.000344425	0.00216117
12.7769	12.6335	0.000844615	0.00275821
12.7774	12.634	2.483e-06	0.0037675
12.7779	12.6345	-0.00109399	0.00402841
12.7784	12.635	-0.000330353	0.00326264
12.7788	12.6354	-0.000406312	0.00213814
12.7793	12.6359	0.000789933	0.00287186
12.7798	12.6364	8.40423e-05	0.00393392
12.7802	12.6369	-0.00118096	0.0039277
12.7807	12.6373	-0.00035056	0.00311425
12.7812	12.6378	-0.000226054	0.00216535
12.7817	12.6383	0.000588201	0.00277844
12.7821	12.6388	7.5107e-05	0.00397161
12.7826	12.6392	-0.00127272	0.00406315
12.7831	12.6397	-0.000476868	0.00311908
12.7836	12.6401	-0.000259798	0.0021719
12.784	12.6406	0.000674094	0.00290751
12.7845	12.6411	0.000161535	0.00407126
12.785	12.6416	-0.00130412	0.00391229
12.7854	12.642	-0.000234526	0.00299281
12.7859	12.6425	-0.000123824	0.00211323
12.7864	12.6429	0.000616612	0.00287153
12.7869	12.6434	6.77054e-05	0.00405332
12.7873	12.6439	-0.00139642	0.00387165
12.7878	12.6443	-0.000293274	0.00303952
12.7883	12.6448	-1.41214e-05	0.00220959
12.7887	12.6453	0.000497172	0.00287218
12.7892	12.6458	0.000111918	0.00399014
12.7897	12.6463	-0.00135988	0.00386263
12.7902	12.6467	-0.000381236	0.00302443
12.7906	12.6472	-7.80926e-07	0.00218575
12.7911	12.6477	0.000393408	0.00278156
12.7916	12.6482	0.000168134	0.00414394
12.7921	12.6487	-0.00136394	0.00368343
12.7925	12.6491	-0.000256196	0.00295749
12.793	12.6496	6.81692e-05	0.00210093
12.7935	12.6501	0.000396743	0.00297585
12.7939	12.6505	0.000216752	0.0040829
12.7944	12.651	-0.00146624	0.0036677
12.7949	12.6515	-0.000258532	0.00293102
12.7954	12.652	0.000197544	0.00215961
12.7958	12.6524	0.000400274	0.00278204
12.7963	12.6529	0.000244093	0.00411002
12.7968	12.6534	-0.00154067	0.00382838
12.7972	12.6538	-0.000319617	0.00305525
12.7977	12.6543	0.000148195	0.0021755
12.7982	12.6548	0.000333589	0.00298396
12.7987	12.6553	0.000167135	0.00415796
12.7991	12.6558	-0.00150052	0.00376143
12.7996	12.6562	-0.000207649	0.00282891
12.8001	12.6567	0.000347393	0.00225705
12.8006	12.6572	0.000263034	0.00304918
12.801	12.6577	0.000273771	0.00420745
12.8015	12.6581	-0.00145524	0.00371161
12.802	12.6586	-0.000347225	0.00280196
12.8024	12.6591	0.000382939	0.00222312
12.8029	12.6595	0.00021982	0.00301042
12.8034	12.66	0.000130592	0.00422351
12.8039	12.6605	-0.0014233	0.00363597
12.8043	12.6609	-0.00030048	0.00281532
12.8048	12.6614	0.000384669	0.00227965
12.8053	12.6619	0.000311313	0.00305976
12.8057	12.6624	0.000194476	0.00425572
12.8062	12.6628	-0.00135067	0.00355313
12.8067	12.6633	-0.000404244	0.00274747
12.8072	12.6637	0.000449624	0.00231874
12.8076	12.6642	0.00016767	0.00297601
12.8081	12.6647	0.000171006	0.00425867
12.8086	12.6652	-0.00139696	0.00357895
12.8091	12.6657	-0.000390439	0.00276755
12.8095	12.6661	0.000492838	0.00239159
12.81	12.6666	7.81746e-05	0.00312359
12.8105	12.6671	0.000118856	0.00430087
12.8109	12.6676	-0.00134147	0.0036554
12.8114	12.668	-0.000323951	0.00263274
12.8119	12.6685	0.000570063	0.00237569
12.8124	12.669	8.71099e-05	0.00310351
12.8128	12.6694	4.81931e-06	0.00432111
12.8133	12.6699	-0.00124764	0.00360558
12.8138	12.6703	-0.000424718	0.00263242
12.8142	12.6708	0.000722445	0.00245182
12.8147	12.6713	2.62926e-05	0.00336909
12.8152	12.6718	4.49658e-05	0.00424047
12.8157	12.6722	-0.00127191	0.00366941
12.8161	12.6727	-0.000414516	0.00246551
12.8166	12.6732	0.0006897	0.00242412
12.8171	12.6736	2.16912e-05	0.00313137
12.8176	12.6741	-9.44144e-05	0.00429808
12.818	12.6746	-0.00120163	0.00359157
12.8185	12.6751	-0.000449259	0.00255162
12.819	12.6755	0.000795533	0.00244575
12.8194	12.676	-3.89298e-05	0.00317996
12.8199	12.6765	-7.44749e-05	0.00445361
12.8204	12.677	-0.00103797	0.00360075
12.8209	12.6775	-0.000421115	0.00244141
12.8213	12.6779	0.000810871	0.00246911
12.8218	12.6784	1.37547e-05	0.00332099
12.8223	12.6789	-0.000229122	0.0043057
12.8227	12.6793	-0.000885128	0.00357461
12.8232	12.6798	-0.000390707	0.00242068
12.8237	12.6803	0.000869156	0.00254089
12.8242	12.6808	-1.56552e-05	0.00331337
12.8246	12.6812	-0.00028507	0.0043043
12.8251	12.6817	-0.000901001	0.00354175
12.8256	12.6822	-0.000442321	0.00228088
12.8261	12.6826	0.000769726	0.00248468
12.8265	12.6831	-8.21439e-05	0.00342842
12.827	12.6836	-0.000335222	0.0042408
12.8275	12.684	-0.000897666	0.00358894
12.8279	12.6845	-0.000473532	0.0024042
12.8284	12.685	0.000870422	0.00256998
12.8289	12.6855	-3.99286e-05	0.00344383
12.8294	12.686	-0.000298411	0.00433201
12.8298	12.6864	-0.000797433	0.00352838
12.8303	12.6869	-0.000548956	0.00235374
12.8308	12.6874	0.00101513	0.00264643
12.8312	12.6879	-2.45905e-05	0.00344292
12.8317	12.6884	-0.000490404	0.00420573
12.8322	12.6888	-0.000732211	0.0035519
12.8327	12.6893	-0.000587302	0.00240544
12.8331	12.6897	0.00104174	0.00265545
12.8336	12.6902	5.77001e-05	0.00349585
12.8341	12.6907	-0.000510611	0.00433389
12.8346	12.6912	-0.000804104	0.00343932
12.835	12.6916	-0.000549224	0.00224615
12.8355	12.6921	0.00102667	0.00254121
12.836	12.6926	-5.42679e-05	0.00353322
12.8364	12.693	-0.000572231	0.00423564
12.8369	12.6935	-0.000797166	0.00351093
12.8374	12.694	-0.000606242	0.00224089
12.8379	12.6944	0.000987259	0.00265126
12.8383	12.6949	-0.000114621	0.00347652
12.8388	12.6954	-0.000593169	0.00415205
12.8393	12.6959	-0.000655324	0.00336163
12.8397	12.6963	-0.000666792	0.00222623
12.8402	12.6968	0.00102361	0.00276631
12.8407	12.6973	-0.000115085	0.00350594
12.8412	12.6978	-0.000717408	0.00421819
12.8416	12.6982	-0.000604174	0.00341956
12.8421	12.6987	-0.000490404	0.00208504
12.8426	12.6991	0.0010134	0.00277517
12.8431	12.6996	-0.000124556	0.00357616
12.8435	12.7001	-0.000795168	0.00413181
12.844	12.7005	-0.000641252	0.00336368
12.8445	12.701	-0.000628179	0.00215027
12.8449	12.7015	0.000896497	0.00279852
12.8454	12.702	-0.000127088	0.0036808
12.8459	12.7024	-0.000754219	0.0042299
12.8464	12.7029	-0.000483003	0.00330247
12.8468	12.7034	-0.0004794	0.00211446
12.8473	12.7038	0.000874827	0.00286874
12.8478	12.7043	-2.71232e-05	0.00372128
12.8482	12.7048	-0.000913004	0.00410985
12.8487	12.7053	-0.000558694	0.00333549
12.8492	12.7058	-0.000629713	0.00211897
12.8497	12.7063	0.000974524	0.00275542
12.8501	12.7067	-0.000111554	0.00374742
12.8506	12.7072	-0.000980224	0.00411608
12.8511	12.7077	-0.000470465	0.00337736
12.8516	12.7082	-0.000479668	0.00210684
12.852	12.7086	0.000904968	0.00283605
12.8525	12.7091	5.33662e-05	0.00375209
12.853	12.7096	-0.000958483	0.00399824
12.8534	12.71	-0.000497342	0.00319226
12.8539	12.7105	-0.00050881	0.00213486
12.8544	12.711	0.000855886	0.00271445
12.8549	12.7115	-1.87228e-05	0.00378806
12.8553	12.7119	-0.00104464	0.00406487
12.8558	12.7124	-0.000367967	0.00333066
12.8563	12.7129	-0.000366433	0.00223901
12.8567	12.7133	0.000707838	0.00276803
12.8572	12.7138	8.02434e-05	0.00383101
12.8577	12.7143	-0.00116382	0.00402782
12.8582	12.7147	-0.000378169	0.00324675
12.8586	12.7152	-0.000341357	0.00212069
12.8591	12.7157	0.000749519	0.00293242
12.8596	12.7162	0.000136459	0.00389656
12.8601	12.7167	-0.00129572	0.0039227
12.8605	12.7171	-0.000359228	0.0030895
12.861	12.7176	-0.00031555	0.00224196
12.8615	12.7181	0.000738782	0.00288603
12.8619	12.7186	0.000192479	0.00397285
12.8624	12.719	-0.00121723	0.00384116
12.8629	12.7195	-0.00041111	0.00319676
12.8634	12.7199	-0.000195646	0.00224336
12.8638	12.7204	0.000484437	0.00290579
12.8643	12.7209	0.000112721	0.0039467
12.8648	12.7214	-0.00125025	0.00388271
12.8652	12.7218	-0.000307079	0.0030945
12.8657	12.7223	-0.000152164	0.00215011
12.8662	12.7228	0.000631683	0.002922
12.8667	12.7232	0.000126989	0.00400431
12.8671	12.7237	-0.00136375	0.0038687
12.8676	12.7242	-0.000317352	0.00306647
12.8681	12.7246	4.56971e-05	0.00203801
12.8686	12.7251	0.000544791	0.00295749
12.869	12.7256	0.000143397	0.00408183
12.8695	12.7261	-0.00133127	0.00365852
12.87	12.7265	-0.000360566	0.00308016
12.8704	12.727	-5.60692e-05	0.00224336
12.8709	12.7275	0.000391071	0.00286735
12.8714	12.728	0.000137726	0.00413944
12.8719	12.7284	-0.00135347	0.00375397
12.8723	12.7289	-0.000410914	0.00296076
12.8728	12.7294	2.14237e-05	0.00223139
12.8733	12.7298	0.000437353	0.00293462
12.8737	12.7303	0.000163533	0.00412682
12.8742	12.7308	-0.00142176	0.00366319
12.8747	12.7313	-0.000291009	0.00292758
12.8752	12.7317	0.000113452	0.00224572
12.8756	12.7322	0.000424084	0.00300092
12.8761	12.7327	6.74379e-05	0.00410223
12.8766	12.7331	-0.00148718	0.00382387
12.8771	12.7336	-0.000329087	0.00295437
12.8775	12.7341	0.0001638	0.00227605
12.878	12.7346	0.000363267	0.0029933
12.8785	12.735	0.000278105	0.00429743
12.8789	12.7355	-0.0014261	0.00377545
12.8794	12.736	-0.000281004	0.00282359
12.8799	12.7365	0.000274502	0.00224508
12.8804	12.737	0.000207549	0.00286268
12.8808	12.7374	0.000357595	0.00420885
12.8813	12.7379	-0.00140129	0.00368391
12.8818	12.7384	-0.000289208	0.0028848
12.8822	12.7389	0.000391606	0.00229538
12.8827	12.7393	0.000260965	0.0031857
12.8832	12.7398	0.000254562	0.00429045
12.8837	12.7403	-0.00135554	0.00372825
12.8841	12.7407	-0.000289475	0.00287186
12.8846	12.7412	0.000473433	0.00228818
12.8851	12.7417	7.89771e-05	0.00303517
12.8856	12.7422	0.000217484	0.0043538
12.886	12.7426	-0.00137648	0.00360607
12.8865	12.7431	-0.000413714	0.00281753
12.887	12.7436	0.000474699	0.00236045
12.8874	12.744	0.000207014	0.00311285
12.8879	12.7445	0.000130324	0.00436207
12.8884	12.745	-0.00129392	0.00377872
12.8889	12.7455	-0.000238592	0.00261546
12.8893	12.7459	0.000431218	0.00231251
12.8898	12.7464	9.29777e-05	0.00312187
12.8903	12.7469	0.000183009	0.00427891
12.8907	12.7474	-0.00122264	0.00365138
12.8912	12.7478	-0.000475334	0.00280008
12.8917	12.7483	0.000537586	0.00248779
12.8922	12.7488	4.98347e-05	0.00307393
12.8926	12.7492	0.000130057	0.00422957
12.8931	12.7497	-0.00126071	0.00357788
12.8936	12.7502	-0.000276135	0.00264316
12.8941	12.7506	0.000638817	0.00235562
12.8945	12.7511	0.000117786	0.00306631
12.895	12.7516	-5.86018e-05	0.00417353
12.8955	12.7521	-0.00115948	0.00364278
12.8959	12.7525	-0.000484002	0.00256531
12.8964	12.753	0.000728848	0.00246288
12.8969	12.7534	4.05607e-05	0.00316096
12.8974	12.7539	-0.000164167	0.00424638
12.8978	12.7544	-0.00122003	0.00362147
12.8983	12.7548	-0.000437256	0.00257047
12.8988	12.7553	0.000796068	0.00237897
