# 1304     AichiSR QXAFS
# Start     : 8.9544
# End       : 9.0544
# Dir       : Backward
# Points    : 300
# ScanTime  : 1.01549
# Date      : 13.04.23 22:56
# Ring Cur. : 0.9[mA]
12.7557	12.6121	-0.00119423	0.00360295
12.7562	12.6126	-0.000498073	0.00261857
12.7566	12.613	0.000539119	0.00240044
12.7571	12.6135	-9.46819e-05	0.00323397
12.7576	12.614	-0.000159031	0.00428439
12.7581	12.6144	-0.00124024	0.00344259
12.7585	12.6149	-0.000507276	0.00254883
12.759	12.6154	0.000635482	0.00242568
12.7595	12.6159	-0.000105615	0.00319054
12.7599	12.6163	-0.000280273	0.00417508
12.7604	12.6168	-0.0013384	0.00349987
12.7609	12.6173	-0.000500606	0.00240216
12.7614	12.6178	0.000568529	0.00248296
12.7618	12.6182	-0.000150363	0.00326543
12.7623	12.6187	-0.000275404	0.00418287
12.7628	12.6192	-0.00105691	0.00353789
12.7632	12.6196	-0.000556626	0.00247099
12.7637	12.6201	0.00071911	0.00245665
12.7642	12.6206	-8.56754e-05	0.00326559
12.7647	12.6211	-0.000442856	0.00429652
12.7651	12.6216	-0.00114695	0.00361992
12.7656	12.622	-0.000578099	0.00244125
12.7661	12.6225	0.000736249	0.00250196
12.7666	12.623	-6.16694e-05	0.00331198
12.767	12.6234	-0.000404779	0.0042299
12.7675	12.6239	-0.00094368	0.00359549
12.768	12.6244	-0.000507009	0.00236372
12.7684	12.6248	0.000767193	0.00251302
12.7689	12.6253	-0.000133758	0.00338048
12.7694	12.6258	-0.000395576	0.00418877
12.7699	12.6263	-0.000987162	0.0035469
12.7703	12.6268	-0.000604174	0.00239749
12.7708	12.6272	0.000923106	0.00267773
12.7713	12.6277	-0.00013169	0.00342268
12.7717	12.6282	-0.000550758	0.00422318
12.7722	12.6287	-0.000911203	0.00347545
12.7727	12.6291	-0.000601106	0.00236201
12.7732	12.6296	0.000927708	0.00263865
12.7736	12.6301	-0.00010335	0.00344415
12.7741	12.6305	-0.000455127	0.00420483
12.7746	12.631	-0.000915269	0.00346767
12.7751	12.6315	-0.000575495	0.00225893
12.7755	12.632	0.000940246	0.00266495
12.776	12.6324	-0.000132225	0.00348962
12.7765	12.6329	-0.000601908	0.0041936
12.7769	12.6333	-0.000912469	0.00356215
12.7774	12.6338	-0.000650723	0.00230842
12.7779	12.6343	0.000998798	0.00268487
12.7784	12.6348	-0.00013169	0.00352822
12.7788	12.6352	-0.000622579	0.00416058
12.7793	12.6357	-0.000823508	0.00341645
12.7798	12.6362	-0.000726343	0.00228932
12.7802	12.6367	0.000960453	0.00270634
12.7807	12.6372	-0.000190045	0.00356231
12.7812	12.6376	-0.000753755	0.00421105
12.7817	12.6381	-0.000762156	0.00351142
12.7821	12.6386	-0.000761692	0.00213282
12.7826	12.639	0.00102514	0.00266839
12.7831	12.6395	-0.000140161	0.00362443
12.7836	12.6399	-0.000812236	0.00412231
12.784	12.6404	-0.000675995	0.00340007
12.7845	12.6409	-0.000717212	0.00212069
12.785	12.6414	0.00095685	0.00266044
12.7854	12.6418	-0.000155232	0.00349241
12.7859	12.6423	-0.000874659	0.0041564
12.7864	12.6428	-0.000656323	0.00338187
12.7869	12.6432	-0.000687534	0.00220181
12.7873	12.6437	0.000891699	0.00266372
12.7878	12.6442	-0.000213784	0.00365368
12.7883	12.6446	-0.000855254	0.00415903
12.7887	12.6451	-0.000701071	0.0034158
12.7892	12.6456	-0.00068493	0.00217051
12.7897	12.6461	0.000944045	0.00273485
12.7902	12.6466	-0.000148561	0.00357772
12.7906	12.647	-0.00100196	0.00417648
12.7911	12.6475	-0.000696737	0.00326838
12.7916	12.648	-0.0006888	0.0022563
12.7921	12.6485	0.00102434	0.00275853
12.7925	12.6489	-5.52667e-05	0.00364204
12.793	12.6494	-0.000961551	0.00407249
12.7935	12.6499	-0.00048887	0.00329329
12.7939	12.6503	-0.000671661	0.00209873
12.7944	12.6508	0.000780462	0.00263274
12.7949	12.6513	-7.64725e-05	0.00369604
12.7954	12.6518	-0.00102497	0.00404291
12.7958	12.6522	-0.000581701	0.00323864
12.7963	12.6527	-0.00052108	0.00201809
12.7968	12.6532	0.000796532	0.00271526
12.7972	12.6536	-2.51255e-05	0.00380486
12.7977	12.6541	-0.00108506	0.00400882
12.7982	12.6546	-0.000506545	0.00326264
12.7987	12.6551	-0.000411378	0.00215338
12.7991	12.6556	0.000756189	0.00279713
12.7996	12.656	-9.64832e-05	0.00375676
12.8001	12.6565	-0.00107206	0.00400694
12.8006	12.657	-0.000424183	0.00333951
12.801	12.6575	-0.000381236	0.00210109
12.8015	12.6579	0.000663358	0.00272895
12.802	12.6584	-6.19369e-05	0.00388566
12.8024	12.6589	-0.00117555	0.00397891
12.8029	12.6593	-0.000442589	0.00330419
12.8034	12.6598	-0.000333153	0.00217985
12.8039	12.6603	0.000656491	0.00289816
12.8043	12.6607	-1.10538e-05	0.00380298
12.8048	12.6612	-0.00122517	0.00407372
12.8053	12.6617	-0.000383038	0.00313637
12.8057	12.6622	-0.000310414	0.00201219
12.8062	12.6626	0.000628883	0.00271805
12.8067	12.6631	9.15323e-06	0.00394654
12.8072	12.6636	-0.00112034	0.00396351
12.8076	12.664	-0.000470465	0.00313793
12.8081	12.6645	-0.000261867	0.00217829
12.8086	12.665	0.000526581	0.00280991
12.8091	12.6655	-0.000108219	0.00401521
12.8095	12.6659	-0.00119576	0.00390279
12.81	12.6664	-0.00034389	0.00319349
12.8105	12.6669	-0.000224788	0.00218141
12.8109	12.6674	0.000555991	0.00289709
12.8114	12.6678	8.40423e-05	0.00415189
12.8119	12.6683	-0.0014325	0.00391884
12.8124	12.6688	-0.000321953	0.00306475
12.8128	12.6692	-0.000149364	0.00224991
12.8133	12.6697	0.000552656	0.0029438
12.8138	12.6702	1.65548e-05	0.00409396
12.8142	12.6706	-0.00141816	0.00397392
12.8147	12.6711	-0.000419314	0.00305729
12.8152	12.6716	-2.9727e-05	0.00228448
12.8157	12.672	0.000384936	0.00303082
12.8161	12.6725	5.18323e-05	0.00399792
12.8166	12.673	-0.00145731	0.0038564
12.8171	12.6734	-0.000271801	0.00296683
12.8176	12.6739	-9.08118e-05	0.00225147
12.818	12.6744	0.00043202	0.0029606
12.8185	12.6749	0.000107584	0.00433077
12.819	12.6753	-0.00137241	0.00379676
12.8194	12.6758	-0.000313214	0.00294364
12.8199	12.6763	-3.40609e-05	0.00217829
12.8204	12.6768	0.000245092	0.00282236
12.8209	12.6773	7.84421e-05	0.00405397
12.8213	12.6777	-0.00163496	0.00377561
12.8218	12.6782	-0.000494203	0.00297257
12.8223	12.6787	3.29628e-05	0.00227605
12.8227	12.6792	0.000277035	0.00295545
12.8232	12.6796	7.15043e-05	0.00409289
12.8237	12.6801	-0.00155267	0.00381265
12.8242	12.6806	-0.000386105	0.002903
12.8246	12.681	0.00016487	0.00209701
12.8251	12.6815	0.000317716	0.00286579
12.8256	12.682	0.000152529	0.00428439
12.8261	12.6825	-0.00151433	0.00377045
12.8265	12.6829	-0.000447458	0.00288898
12.827	12.6834	0.000214951	0.00222033
12.8275	12.6839	0.000129058	0.00290176
12.8279	12.6843	3.82956e-05	0.00418008
12.8284	12.6848	-0.00142357	0.00375692
12.8289	12.6853	-0.000445656	0.002903
12.8294	12.6858	0.000131858	0.00222827
12.8298	12.6862	0.000182741	0.00300108
12.8303	12.6867	0.000115253	0.00408323
12.8308	12.6872	-0.00144531	0.0037457
12.8312	12.6877	-0.000290742	0.00283138
12.8317	12.6882	0.000340188	0.0021529
12.8322	12.6886	2.85577e-05	0.00298846
12.8327	12.6891	0.000101449	0.00433791
12.8331	12.6896	-0.00140382	0.00370243
12.8336	12.69	-0.000446459	0.00269346
12.8341	12.6905	0.000305713	0.00229334
12.8346	12.691	3.4693e-05	0.00311752
12.835	12.6914	0.000121853	0.00424342
12.8355	12.6919	-0.00134481	0.0036604
12.836	12.6924	-0.000375369	0.00266495
12.8364	12.6928	0.000292908	0.00229211
12.8369	12.6933	9.89166e-05	0.00301633
12.8374	12.6938	-2.58223e-06	0.00422769
12.8379	12.6942	-0.00144857	0.00366491
12.8383	12.6947	-0.000558427	0.00273158
12.8388	12.6952	0.000308246	0.00233038
12.8393	12.6957	6.89717e-05	0.00314743
12.8397	12.6961	-4.96168e-08	0.00418614
12.8402	12.6966	-0.00127498	0.00352339
12.8407	12.6971	-0.000333956	0.00267429
12.8412	12.6976	0.00051918	0.00239421
12.8416	12.698	1.21669e-06	0.003099
12.8421	12.6985	4.28431e-06	0.00419205
12.8426	12.699	-0.00121336	0.00372767
12.8431	12.6994	-0.000362563	0.00262201
12.8435	12.6999	0.0004775	0.00243002
12.844	12.7004	-0.000195378	0.00324363
12.8445	12.7008	-9.87483e-05	0.00431069
12.8449	12.7013	-0.00125458	0.00349037
12.8454	12.7018	-0.00051161	0.00253761
12.8459	12.7023	0.000620411	0.00235374
12.8464	12.7027	-8.26077e-05	0.00324691
12.8468	12.7032	-0.000128158	0.00423424
12.8473	12.7037	-0.00114741	0.00350954
12.8478	12.7041	-0.000474067	0.00247984
12.8482	12.7046	0.000626083	0.00237086
12.8487	12.7051	-0.000108682	0.00328535
12.8492	12.7056	-0.000144763	0.00433651
12.8497	12.7061	-0.00119703	0.00354814
12.8501	12.7065	-0.000513144	0.00247066
12.8506	12.707	0.000719574	0.0024719
12.8511	12.7075	-6.57359e-05	0.00333565
12.8516	12.708	-0.000256463	0.00416681
12.852	12.7085	-0.00119116	0.00363704
12.8525	12.7089	-0.000571429	0.00239282
12.853	12.7094	0.000758721	0.00251598
12.8534	12.7098	-0.000204581	0.00332722
12.8539	12.7103	-0.000302013	0.00419951
12.8544	12.7108	-0.00111113	0.0035279
12.8549	12.7113	-0.000629981	0.0024115
12.8553	12.7117	0.000772258	0.00255039
12.8558	12.7122	-0.000109949	0.00340228
12.8563	12.7127	-0.000459996	0.00426662
12.8567	12.7131	-0.000998362	0.00365385
12.8572	12.7136	-0.000508007	0.00231948
12.8577	12.7141	0.000886295	0.00247394
12.8582	12.7146	-0.000106417	0.00336131
12.8586	12.715	-0.000413446	0.00422318
12.8591	12.7155	-0.00102931	0.00359222
12.8596	12.716	-0.000545354	0.00232759
12.8601	12.7165	0.000861754	0.00252811
12.8605	12.717	-0.00011842	0.0033291
12.861	12.7174	-0.000442321	0.00414051
12.8615	12.7179	-0.000983827	0.00356682
12.8619	12.7184	-0.000676263	0.00231637
12.8624	12.7188	0.000874292	0.00257793
12.8629	12.7193	-6.19369e-05	0.00344866
12.8634	12.7198	-0.000531817	0.0042045
12.8638	12.7202	-0.000826112	0.00347217
12.8643	12.7207	-0.000569163	0.00231965
12.8648	12.7212	0.00102867	0.00267413
12.8652	12.7216	-5.68005e-05	0.00353445
12.8657	12.7221	-0.000503941	0.00422737
12.8662	12.7226	-0.000856521	0.00355437
12.8667	12.723	-0.000657589	0.00217829
12.8671	12.7235	0.00100574	0.00258711
12.8676	12.724	-0.000115085	0.00346407
12.8681	12.7244	-0.000552024	0.00422023
12.8686	12.7249	-0.000709007	0.00344678
12.869	12.7254	-0.000722277	0.00227171
12.8695	12.7259	0.000935377	0.00280491
12.87	12.7264	-8.46765e-05	0.00348758
12.8704	12.7268	-0.000754219	0.00410379
12.8709	12.7273	-0.000680596	0.00345038
12.8714	12.7278	-0.000670662	0.00220943
12.8719	12.7283	0.00099293	0.00262185
12.8723	12.7287	-5.55342e-05	0.00361836
12.8728	12.7292	-0.000660924	0.0042453
12.8733	12.7296	-0.000721742	0.00343341
12.8737	12.7301	-0.000658124	0.00216321
12.8742	12.7306	0.000981926	0.00261513
12.8747	12.7311	-0.000123289	0.00350626
12.8752	12.7316	-0.000881596	0.00416091
12.8756	12.732	-0.000597771	0.00347169
12.8761	12.7325	-0.000659123	0.0021456
12.8766	12.733	0.000905236	0.00279246
12.8771	12.7334	-6.50045e-05	0.00362443
12.8775	12.7339	-0.000879991	0.00415812
12.878	12.7344	-0.000567362	0.00349118
12.8785	12.7349	-0.000717675	0.00230891
12.8789	12.7353	0.000829812	0.00283294
12.8794	12.7358	-0.000235792	0.00370383
12.8799	12.7363	-0.000948816	0.00416746
12.8804	12.7368	-0.000543089	0.00339465
12.8808	12.7373	-0.000698538	0.00227154
12.8813	12.7377	0.000870689	0.00265905
12.8818	12.7382	-9.78746e-06	0.00374152
12.8822	12.7387	-0.001128	0.00405692
12.8827	12.7391	-0.000705137	0.00340507
12.8832	12.7396	-0.000496807	0.00215961
12.8837	12.7401	0.000752319	0.00274731
12.8841	12.7405	-0.00016497	0.00370727
12.8846	12.741	-0.00111754	0.00398686
12.8851	12.7415	-0.000524416	0.00327493
12.8856	12.742	-0.000569698	0.00218951
12.886	12.7424	0.000800669	0.00283605
12.8865	12.7429	-0.000112285	0.00374431
12.887	12.7434	-0.00107946	0.00416107
12.8874	12.7438	-0.00038944	0.0031893
12.8879	12.7443	-0.00043772	0.00215027
12.8884	12.7448	0.000767389	0.00280057
12.8889	12.7453	-3.96611e-05	0.00375381
12.8893	12.7457	-0.00118349	0.00397629
12.8898	12.7462	-0.000485268	0.00313793
12.8903	12.7467	-0.000430586	0.00222172
12.8907	12.7472	0.000739317	0.00276164
12.8912	12.7477	-6.32032e-05	0.00369293
12.8917	12.7481	-0.00125945	0.00394606
12.8922	12.7486	-0.000471	0.00319349
12.8926	12.7491	-0.000382503	0.00206759
12.8931	12.7495	0.000638086	0.00282343
12.8936	12.75	-5.34654e-05	0.00390918
12.8941	12.7504	-0.00126171	0.00390327
12.8945	12.7509	-0.000391973	0.00323773
12.895	12.7514	-0.000375833	0.00221099
12.8955	12.7519	0.000650624	0.0028994
12.8959	12.7523	8.04397e-05	0.00392893
12.8964	12.7528	-0.00126198	0.00399309
12.8969	12.7533	-0.000409915	0.00305557
12.8974	12.7537	-0.000369697	0.00215945
12.8978	12.7542	0.000594336	0.00290439
12.8983	12.7547	4.18982e-05	0.00398423
12.8988	12.7551	-0.00124484	0.00395121
