# 1304     AichiSR QXAFS
# Start     : 8.9544
# End       : 9.0544
# Dir       : Backward
# Points    : 300
# ScanTime  : 1.01549
# Date      : 13.04.23 23:17
# Ring Cur. : 0.9[mA]
12.7557	12.6123	0.000144396	0.00328583
12.7562	12.6127	-1.7189e-05	0.00439772
12.7566	12.6132	-0.00123384	0.00362131
12.7571	12.6137	-0.000404244	0.00271961
12.7576	12.6141	0.000589735	0.0024814
12.7581	12.6146	0.00011652	0.00326634
12.7585	12.6151	-5.88693e-05	0.00438247
12.759	12.6156	-0.00102984	0.00379397
12.7595	12.616	-0.00051161	0.00274296
12.7599	12.6165	0.000607142	0.0024537
12.7604	12.617	9.49192e-07	0.00336228
12.7609	12.6175	-0.00013276	0.00426227
12.7614	12.6179	-0.0011234	0.00371628
12.7618	12.6184	-0.000422917	0.0026125
12.7623	12.6189	0.00063088	0.00252966
12.7628	12.6193	3.74931e-06	0.00326371
12.7632	12.6198	-0.000234722	0.00436953
12.7637	12.6203	-0.00101884	0.00362164
12.7642	12.6208	-0.000342891	0.0027006
12.7647	12.6212	0.000685366	0.00246444
12.7651	12.6217	-5.83343e-05	0.00336287
12.7656	12.6222	-0.000103082	0.00432111
12.7661	12.6226	-0.00101803	0.00374447
12.7666	12.6231	-0.000354698	0.00258931
12.767	12.6236	0.000704307	0.00253573
12.7675	12.624	-1.87228e-05	0.00346562
12.768	12.6245	-0.000276938	0.00436175
12.7684	12.625	-0.00100196	0.00356838
12.7689	12.6255	-0.00053435	0.00255629
12.7694	12.626	0.00093131	0.00260161
12.7699	12.6264	-0.000114354	0.00345956
12.7703	12.6269	-0.000341357	0.00432175
12.7708	12.6274	-0.000970557	0.00360295
12.7713	12.6279	-0.000576565	0.00251549
12.7717	12.6284	0.000851285	0.00268798
12.7722	12.6288	-3.91973e-05	0.00340834
12.7727	12.6293	-0.000460263	0.00428128
12.7732	12.6297	-0.000877191	0.00370694
12.7736	12.6302	-0.00050494	0.00254024
12.7741	12.6307	0.000920306	0.00274484
12.7746	12.6312	-0.000130423	0.00339073
12.7751	12.6316	-0.000524416	0.00419983
12.7755	12.6321	-0.000892797	0.0035374
12.776	12.6326	-0.00053542	0.00246551
12.7765	12.633	0.000928974	0.00256966
12.7769	12.6335	-0.000107684	0.00355158
12.7774	12.634	-0.000591368	0.00432471
12.7779	12.6344	-0.000840647	0.00357182
12.7784	12.6349	-0.000610309	0.0024079
12.7788	12.6354	0.000970922	0.00273239
12.7793	12.6359	-0.000180308	0.00348028
12.7798	12.6364	-0.000612841	0.00430259
12.7802	12.6368	-0.000810239	0.00352683
12.7807	12.6373	-0.000626913	0.00233865
12.7812	12.6378	0.000883762	0.00271912
12.7817	12.6382	-0.000161902	0.00359468
12.7821	12.6387	-0.000612574	0.00426726
12.7826	12.6392	-0.000735082	0.0035687
12.7831	12.6396	-0.000666061	0.00228137
12.7836	12.6401	0.00102027	0.00270199
12.784	12.6406	-9.33444e-05	0.00358599
12.7845	12.641	-0.000772161	0.00422507
12.785	12.6415	-0.000697736	0.00353429
12.7854	12.642	-0.000592171	0.00220894
12.7859	12.6424	0.0010154	0.00271944
12.7864	12.6429	-9.48782e-05	0.00363565
12.7869	12.6434	-0.000744018	0.00415828
12.7873	12.6438	-0.00070874	0.00340351
12.7878	12.6443	-0.000695738	0.00223901
12.7883	12.6448	0.00084515	0.00274484
12.7887	12.6453	-6.01356e-05	0.00367892
12.7892	12.6457	-0.00087926	0.00416451
12.7897	12.6462	-0.000687998	0.00352076
12.7902	12.6467	-0.00067933	0.00228384
12.7906	12.6472	0.000996997	0.00279385
12.7911	12.6477	-0.000105419	0.00364359
12.7916	12.6481	-0.000821243	0.00422957
12.7921	12.6486	-0.000608507	0.00336426
12.7925	12.6491	-0.000566363	0.00216567
12.793	12.6495	0.000869691	0.00286284
12.7935	12.65	-1.92578e-05	0.00370866
12.7939	12.6505	-0.000968488	0.0041156
12.7944	12.651	-0.000561494	0.0034471
12.7949	12.6515	-0.000532085	0.00210388
12.7954	12.6519	0.000878626	0.00285022
12.7958	12.6524	-0.000120685	0.00371285
12.7963	12.6529	-0.000918872	0.00416558
12.7968	12.6533	-0.00048047	0.00332025
12.7972	12.6538	-0.000621313	0.00211602
12.7977	12.6543	0.000828278	0.00283154
12.7982	12.6547	-0.000176973	0.00375053
12.7987	12.6552	-0.00086979	0.00402701
12.7991	12.6557	-0.000544088	0.00333581
12.7996	12.6562	-0.000541287	0.00207849
12.8001	12.6567	0.000920306	0.00280352
12.8006	12.6571	-8.80117e-05	0.0037974
12.801	12.6576	-0.00112034	0.00405225
12.8015	12.6581	-0.000505742	0.00331788
12.802	12.6586	-0.000424183	0.00218312
12.8024	12.659	0.000740316	0.00287792
12.8029	12.6595	-0.000117422	0.0038637
12.8034	12.66	-0.00111853	0.00406659
12.8039	12.6604	-0.000353895	0.0033182
12.8043	12.6609	-0.000368698	0.00208955
12.8048	12.6614	0.000707838	0.00281565
12.8053	12.6619	-0.000103617	0.00395105
12.8057	12.6623	-0.00125972	0.0039976
12.8062	12.6628	-0.000468931	0.00320643
12.8067	12.6632	-0.000344425	0.00221271
12.8072	12.6637	0.000671294	0.0028163
12.8076	12.6642	1.91586e-05	0.00387648
12.8081	12.6647	-0.00127885	0.0039744
12.8086	12.6651	-0.000401176	0.00304575
12.8091	12.6656	-0.000244728	0.00214715
12.8095	12.6661	0.000514846	0.00287014
12.81	12.6666	-5.21991e-05	0.003954
12.8105	12.667	-0.00137268	0.00392818
12.8109	12.6675	-0.000514945	0.00314727
12.8114	12.668	-0.000299945	0.00221721
12.8119	12.6685	0.000578535	0.00276878
12.8124	12.6689	1.68223e-05	0.00402095
12.8128	12.6694	-0.00138955	0.00393704
12.8133	12.6698	-0.000452059	0.00320111
12.8138	12.6703	-0.000143229	0.00218779
12.8142	12.6708	0.000442222	0.00295437
12.8147	12.6713	-1.31593e-06	0.00395481
12.8152	12.6717	-0.00141436	0.003777
12.8157	12.6722	-0.000408845	0.0030822
12.8161	12.6726	-0.000142426	0.00215526
12.8166	12.6731	0.00044249	0.00291513
12.8171	12.6736	-1.53877e-05	0.00400554
12.8176	12.6741	-0.00147752	0.00390327
12.818	12.6745	-0.000445656	0.00301821
12.8185	12.675	4.05607e-05	0.00224148
12.819	12.6755	0.00046316	0.00287653
12.8194	12.676	0.000119855	0.00408274
12.8199	12.6765	-0.0014225	0.00394654
12.8204	12.6769	-0.000407846	0.00309073
12.8209	12.6774	-1.85092e-06	0.00223557
12.8213	12.6779	0.000294174	0.00296543
12.8218	12.6784	0.000174537	0.00413476
12.8223	12.6788	-0.00153093	0.0038483
12.8227	12.6793	-0.000357427	0.00301665
12.8232	12.6798	0.000131858	0.00225786
12.8237	12.6802	0.000295511	0.00292356
12.8242	12.6807	0.000119052	0.00420778
12.8246	12.6812	-0.00159075	0.0038192
12.8251	12.6817	-0.000339021	0.00297585
12.8256	12.6821	0.000204214	0.00227826
12.8261	12.6826	0.000285506	0.00298691
12.8265	12.6831	0.000242025	0.00441468
12.827	12.6835	-0.00144044	0.00386977
12.8275	12.684	-0.000356963	0.00300231
12.8279	12.6845	0.000179673	0.00235234
12.8284	12.685	0.000218286	0.0030509
12.8289	12.6854	0.000240491	0.00423843
12.8294	12.6859	-0.00141616	0.00386403
12.8298	12.6864	-0.000319153	0.00289333
12.8303	12.6869	0.000227489	0.0022513
12.8308	12.6874	0.000260234	0.00312268
12.8312	12.6878	0.000250496	0.00424965
12.8317	12.6883	-0.001523	0.0038156
12.8322	12.6888	-0.000377438	0.00293086
12.8327	12.6892	0.000244825	0.00229957
12.8331	12.6897	8.76449e-05	0.0030028
12.8336	12.6902	0.000139527	0.00426538
12.8341	12.6906	-0.00135861	0.00367285
12.8346	12.6911	-0.00035336	0.00288555
12.835	12.6916	0.000321051	0.0023262
12.8355	12.6921	0.000210082	0.00314694
12.836	12.6925	0.000206016	0.00426227
12.8364	12.693	-0.00147852	0.0037194
12.8369	12.6934	-0.000410914	0.00286735
12.8374	12.6939	0.000302378	0.00240576
12.8379	12.6944	0.000113452	0.00315988
12.8383	12.6949	7.43757e-05	0.00439133
12.8388	12.6953	-0.00136835	0.00386198
12.8393	12.6958	-0.000322684	0.00278762
12.8397	12.6963	0.000434553	0.00242208
12.8402	12.6968	7.33057e-05	0.00317014
12.8407	12.6972	5.08681e-06	0.00442198
12.8412	12.6977	-0.00129185	0.00366786
12.8416	12.6982	-0.000433653	0.00273518
12.8421	12.6987	0.000469831	0.00230907
12.8426	12.6991	0.000207549	0.00311006
12.8431	12.6996	-8.9278e-05	0.00441468
12.8435	12.7	-0.00131973	0.00363549
12.844	12.7005	-0.000395308	0.00274403
12.8445	12.701	0.00054579	0.00234284
12.8449	12.7015	-8.41415e-05	0.00316923
12.8454	12.7019	-1.64577e-05	0.00436438
12.8459	12.7024	-0.00122437	0.00357804
12.8464	12.7029	-0.000369697	0.00260284
12.8468	12.7033	0.000571329	0.00253171
12.8473	12.7038	-7.14073e-05	0.00328411
12.8478	12.7043	-0.000257462	0.00429185
12.8482	12.7048	-0.00124511	0.00364188
12.8487	12.7053	-0.000522882	0.00257793
12.8492	12.7057	0.00061194	0.00242568
12.8497	12.7062	6.46378e-05	0.00326248
12.8501	12.7067	-0.000155767	0.00428047
12.8506	12.7072	-0.00108479	0.00363049
12.8511	12.7077	-0.000555823	0.00260874
12.8516	12.7081	0.000675093	0.00252687
12.852	12.7086	-1.48527e-05	0.00334328
12.8525	12.7091	-0.000222255	0.00431209
12.853	12.7095	-0.0011032	0.00355265
12.8534	12.71	-0.000403512	0.00248516
12.8539	12.7105	0.000666425	0.0025141
12.8544	12.7109	-2.33242e-05	0.00339138
12.8549	12.7114	-0.00031168	0.00424686
12.8553	12.7119	-0.00103724	0.00373636
12.8558	12.7124	-0.000557624	0.00243657
12.8563	12.7128	0.00086129	0.00263398
12.8567	12.7133	-8.56754e-05	0.00326232
12.8572	12.7138	-0.000294077	0.00438838
12.8577	12.7142	-0.00106558	0.0035687
12.8582	12.7147	-0.000582968	0.00255785
12.8586	12.7152	0.000886562	0.00261062
12.8591	12.7157	7.0238e-05	0.00344275
12.8596	12.7162	-0.000452862	0.00437823
12.8601	12.7166	-0.000983292	0.00360295
12.8605	12.7171	-0.000468931	0.00250443
12.861	12.7176	0.000866623	0.00271027
12.8615	12.7181	-0.000149364	0.00342063
12.8619	12.7185	-0.000441055	0.00430071
12.8624	12.719	-0.000823508	0.00361976
12.8629	12.7194	-0.000524148	0.00231809
12.8634	12.7199	0.000763323	0.00263119
12.8638	12.7204	-0.000133758	0.00343744
12.8643	12.7208	-0.000547423	0.00419098
12.8648	12.7213	-0.000816374	0.00352962
12.8652	12.7218	-0.00050601	0.00238192
12.8657	12.7223	0.00099186	0.00270125
12.8662	12.7227	-0.000123022	0.00352634
12.8667	12.7232	-0.000530016	0.00428562
12.8671	12.7236	-0.000860854	0.00349225
12.8676	12.7241	-0.000593437	0.00243158
12.8681	12.7246	0.00101567	0.00276819
12.8686	12.7251	-0.00020558	0.00356215
12.869	12.7255	-0.000596505	0.0042912
12.8695	12.726	-0.000780829	0.00363565
12.87	12.7265	-0.000596237	0.0023693
12.8704	12.727	0.00105708	0.00279074
12.8709	12.7275	-0.000155767	0.00361729
12.8714	12.7279	-0.000720743	0.00419532
12.8719	12.7284	-0.000683932	0.00356838
12.8723	12.7289	-0.000643518	0.00222591
12.8728	12.7293	0.000995463	0.00282655
12.8733	12.7298	-0.000117154	0.00353445
12.8737	12.7303	-0.000770824	0.00413412
12.8742	12.7307	-0.000717408	0.00360558
12.8747	12.7312	-0.000659658	0.00232013
12.8752	12.7317	0.00096632	0.00283294
12.8756	12.7322	-2.58568e-05	0.00360558
12.8761	12.7326	-0.000741681	0.00423097
12.8766	12.7331	-0.000702872	0.00344152
12.8771	12.7336	-0.000736616	0.0022513
12.8775	12.734	0.000899368	0.00285597
12.878	12.7345	-0.000130156	0.00371456
12.8785	12.735	-0.000819709	0.00417476
12.8789	12.7355	-0.000626182	0.00334156
12.8794	12.736	-0.000671394	0.00220353
12.8799	12.7365	0.00089803	0.00294519
12.8804	12.7369	-0.000163168	0.003777
12.8808	12.7374	-0.000885128	0.00407667
12.8813	12.7379	-0.000570697	0.00339605
12.8818	12.7384	-0.000655324	0.00215199
12.8822	12.7388	0.000889095	0.00288743
12.8827	12.7393	-8.18764e-05	0.00362475
12.8832	12.7398	-0.000970022	0.0040938
12.8837	12.7402	-0.000526484	0.00338843
12.8841	12.7407	-0.000626378	0.00223106
12.8846	12.7412	0.000865357	0.00270076
12.8851	12.7417	-4.11949e-05	0.00380503
12.8856	12.7421	-0.00100377	0.00412633
12.886	12.7426	-0.0004766	0.00330575
12.8865	12.743	-0.000503941	0.00220722
12.887	12.7435	0.000870957	0.00287325
12.8874	12.744	4.38958e-05	0.00376143
12.8879	12.7445	-0.00105492	0.00413009
12.8884	12.7449	-0.000474531	0.00334902
12.8889	12.7454	-0.000501676	0.00231514
12.8893	12.7459	0.000762788	0.00290922
12.8898	12.7464	-5.06653e-05	0.00380691
12.8903	12.7468	-0.00106332	0.00414239
12.8907	12.7473	-0.00041218	0.00327445
12.8912	12.7478	-0.000364632	0.00210528
12.8917	12.7483	0.000720644	0.00283728
12.8922	12.7487	6.77054e-05	0.00388845
12.8926	12.7492	-0.00114588	0.00408199
12.8931	12.7497	-0.000473532	0.00326838
12.8936	12.7501	-0.000389708	0.00205873
12.8941	12.7506	0.000690699	0.00289022
12.8945	12.7511	2.269e-05	0.00389205
12.895	12.7515	-0.00128986	0.00405552
12.8955	12.752	-0.000429587	0.00318759
12.8959	12.7525	-0.00040831	0.00214543
12.8964	12.7529	0.000641153	0.00290751
12.8969	12.7534	4.62321e-05	0.0039962
12.8974	12.7539	-0.00131873	0.00399915
12.8978	12.7543	-0.000445656	0.00312563
12.8983	12.7548	-0.000284339	0.00219198
12.8988	12.7553	0.000601007	0.00288292
