# 1304     AichiSR QXAFS
# Start     : 8.9544
# End       : 9.0544
# Dir       : Forward
# Points    : 300
# ScanTime  : 1.01549
# Date      : 13.04.23 23:26
# Ring Cur. : 1[mA]
12.7557	12.7562	-0.00041885	0.00295003
12.7562	12.7557	0.000285774	0.00227917
12.7566	12.7553	0.000310315	0.00308311
12.7571	12.7548	0.000169204	0.00425792
12.7576	12.7543	-0.00149845	0.00369497
12.7581	12.7538	-0.000327553	0.00291422
12.7585	12.7534	0.000277106	0.00234955
12.759	12.7529	0.000176071	0.00294176
12.7595	12.7524	0.000206283	0.00416934
12.7599	12.752	-0.00150512	0.00375521
12.7604	12.7515	-0.000244728	0.00286128
12.7609	12.751	0.000274769	0.00228367
12.7614	12.7506	0.000107852	0.00306131
12.7618	12.7501	0.00023489	0.00423317
12.7623	12.7496	-0.00151019	0.00371161
12.7628	12.7492	-0.000216317	0.00281458
12.7632	12.7487	0.000315451	0.00238675
12.7637	12.7482	3.75643e-05	0.00307721
12.7642	12.7478	0.000155864	0.00422302
12.7647	12.7473	-0.00132694	0.00361541
12.7651	12.7468	-0.000399375	0.00281769
12.7656	12.7463	0.000438619	0.00236775
12.7661	12.7459	2.57576e-05	0.00310539
12.7666	12.7454	0.000125723	0.0042685
12.767	12.7449	-0.0014399	0.00371177
12.7675	12.7444	-0.0004794	0.00268707
12.768	12.744	0.000454225	0.00228539
12.7684	12.7435	0.000165602	0.00316375
12.7689	12.743	5.4365e-05	0.00427284
12.7694	12.7426	-0.00130826	0.00367924
12.7699	12.7421	-0.000399375	0.0026511
12.7703	12.7416	0.000539119	0.00245263
12.7708	12.7412	0.000121924	0.00317357
12.7713	12.7407	-3.76635e-05	0.0042467
12.7717	12.7402	-0.00124611	0.00369186
12.7722	12.7397	-0.000459461	0.00269609
12.7727	12.7393	0.000618146	0.00253729
12.7732	12.7388	0.000178871	0.00327338
12.7736	12.7383	-5.24666e-05	0.00440985
12.7741	12.7379	-0.00119423	0.00349037
12.7746	12.7374	-0.000445656	0.00263349
12.7751	12.7369	0.000596405	0.0024873
12.7755	12.7364	9.5849e-05	0.00317046
12.776	12.7359	-6.9071e-05	0.00431488
12.7765	12.7355	-0.00117149	0.00355904
12.7769	12.735	-0.000368966	0.00253573
12.7774	12.7345	0.000686365	0.00239421
12.7779	12.734	-4.8329e-05	0.00324675
12.7784	12.7335	-0.000245459	0.00430103
12.7788	12.7331	-0.00113901	0.00363377
12.7793	12.7326	-0.000423184	0.0024982
12.7798	12.7321	0.000769726	0.00235889
12.7802	12.7317	-0.00010895	0.0033772
12.7807	12.7312	-0.00035056	0.00428439
12.7812	12.7307	-0.00115408	0.0035628
12.7817	12.7302	-0.000504209	0.00252983
12.7821	12.7298	0.000902168	0.00258432
12.7826	12.7293	-6.80722e-05	0.00333656
12.7831	12.7288	-0.000355429	0.00424998
12.7836	12.7284	-0.00101857	0.00351544
12.784	12.7279	-0.00048327	0.00247829
12.7845	12.7274	0.00086582	0.00254024
12.785	12.727	-8.9278e-05	0.00329157
12.7854	12.7265	-0.000400908	0.00428374
12.7859	12.726	-0.000982293	0.00362303
12.7864	12.7255	-0.000516212	0.00226081
12.7869	12.7251	0.000839282	0.00253901
12.7873	12.7246	-0.000100282	0.00354019
12.7878	12.7241	-0.000565561	0.0042649
12.7883	12.7236	-0.000861586	0.00347513
12.7887	12.7232	-0.000436721	0.00225114
12.7892	12.7227	0.000964787	0.00263586
12.7897	12.7222	-0.000220918	0.00335868
12.7902	12.7218	-0.000536686	0.00432562
12.7906	12.7213	-0.000825844	0.00363892
12.7911	12.7208	-0.000591903	0.00220648
12.7916	12.7204	0.000926441	0.00250132
12.7921	12.7199	-0.000137094	0.00342391
12.7925	12.7194	-0.000559426	0.00425711
12.793	12.719	-0.00073428	0.00348946
12.7935	12.7185	-0.000685465	0.00229195
12.7939	12.718	0.00108416	0.00271494
12.7944	12.7176	-0.000111286	0.00353912
12.7949	12.7171	-0.000569627	0.00416714
12.7954	12.7166	-0.000753488	0.00338843
12.7958	12.7161	-0.000544088	0.0021129
12.7963	12.7157	0.00096352	0.00270371
12.7968	12.7152	-0.000204314	0.00348898
12.7972	12.7147	-0.000721545	0.00415484
12.7977	12.7142	-0.000610309	0.00343529
12.7982	12.7137	-0.000723811	0.00222172
12.7987	12.7133	0.000970654	0.00253713
12.7991	12.7128	-8.11451e-05	0.00362008
12.7996	12.7123	-0.000797166	0.00415001
12.8001	12.7119	-0.000753952	0.00334172
12.8006	12.7114	-0.000694668	0.00210995
12.801	12.7109	0.000908303	0.00271182
12.8015	12.7105	-0.000128426	0.00363892
12.802	12.71	-0.000843448	0.00420901
12.8024	12.7095	-0.000581434	0.00331386
12.8029	12.7091	-0.000557892	0.00227965
12.8034	12.7086	0.000886027	0.00271059
12.8039	12.7081	-6.83397e-05	0.00364982
12.8043	12.7076	-0.000912469	0.00415984
12.8048	12.7072	-0.000579633	0.00339744
12.8053	12.7067	-0.000551293	0.0022876
12.8057	12.7062	0.000856154	0.00276395
12.8062	12.7057	-3.09933e-05	0.00371006
12.8067	12.7052	-0.00106665	0.00404323
12.8072	12.7048	-0.00053155	0.00324208
12.8076	12.7043	-0.000492473	0.0021937
12.8081	12.7038	0.000825745	0.00277893
12.8086	12.7033	-8.62104e-05	0.00377029
12.8091	12.7029	-0.00106565	0.00408478
12.8095	12.7024	-0.000582165	0.00329673
12.81	12.7019	-0.000463063	0.0022155
12.8105	12.7015	0.000791734	0.00282327
12.8109	12.701	-0.000120685	0.00391803
12.8114	12.7005	-0.00109373	0.0040938
12.8119	12.7	-0.000425984	0.00319693
12.8124	12.6996	-0.000453593	0.00211757
12.8128	12.6991	0.000771794	0.00292291
12.8133	12.6987	1.68223e-05	0.00374275
12.8138	12.6982	-0.00113314	0.00406282
12.8142	12.6977	-0.000428784	0.00323413
12.8147	12.6972	-0.000468931	0.00222795
12.8152	12.6968	0.000754387	0.00276631
12.8157	12.6963	6.3104e-05	0.00393114
12.8161	12.6958	-0.00113441	0.00398079
12.8166	12.6953	-0.000368431	0.00329453
12.8171	12.6949	-0.0002644	0.00215182
12.8176	12.6944	0.000531183	0.00287063
12.818	12.6939	-1.85092e-06	0.00399448
12.8185	12.6934	-0.00115255	0.00400726
12.819	12.693	-0.000320883	0.00314432
12.8194	12.6925	-0.000155767	0.00214436
12.8199	12.6921	0.000625013	0.00284276
12.8204	12.6916	7.99759e-05	0.00400989
12.8209	12.6911	-0.00130646	0.00396727
12.8213	12.6906	-0.000480399	0.00314415
12.8218	12.6902	-0.000230923	0.00220583
12.8223	12.6897	0.000520981	0.00282703
12.8227	12.6892	0.000113452	0.00416386
12.8232	12.6888	-0.00126892	0.00388427
12.8237	12.6883	-0.000462064	0.0031317
12.8242	12.6878	-0.000138627	0.00219337
12.8246	12.6874	0.00052198	0.002844
12.8251	12.6869	4.26295e-05	0.00399137
12.8256	12.6864	-0.00127552	0.00377389
12.8261	12.6859	-0.000401711	0.0029424
12.8265	12.6854	-0.000125091	0.00210061
12.827	12.685	0.000373468	0.00300231
12.8275	12.6845	6.3104e-05	0.00415033
12.8279	12.684	-0.001547	0.00375209
12.8284	12.6835	-0.000455858	0.00313293
12.8289	12.6831	5.5435e-05	0.00212519
12.8294	12.6826	0.000325385	0.00292963
12.8298	12.6821	2.52226e-05	0.00413026
12.8303	12.6817	-0.00147238	0.00380175
12.8308	12.6812	-0.000374566	0.00291266
12.8312	12.6807	0.000330522	0.00220443
12.8317	12.6802	0.000291909	0.00296651
12.8322	12.6798	0.000153599	0.0042154
12.8327	12.6793	-0.00148105	0.00378634
12.8331	12.6788	-0.000272336	0.00302862
12.8336	12.6784	0.000222353	0.00227589
12.8341	12.6779	0.000271167	0.0030087
12.8346	12.6774	0.000262499	0.00425088
12.835	12.6769	-0.00143557	0.00380782
12.8355	12.6764	-0.000425717	0.00287997
12.836	12.676	0.00014873	0.00222763
12.8364	12.6755	0.000173271	0.00294176
12.8369	12.675	0.000140258	0.00418131
12.8374	12.6745	-0.00146931	0.00382961
12.8379	12.674	-0.000403976	0.00285301
12.8383	12.6736	0.000316985	0.00229162
12.8388	12.6731	0.000163533	0.0029992
12.8393	12.6726	0.000114718	0.00427644
12.8397	12.6722	-0.00155674	0.00376643
12.8402	12.6717	-0.000335222	0.00284383
12.8407	12.6712	0.00044529	0.00220787
12.8412	12.6708	0.000108316	0.00307377
12.8416	12.6703	9.86491e-05	0.00431177
12.8421	12.6698	-0.00131693	0.0037144
12.8426	12.6694	-0.000352094	0.0027705
12.8431	12.6689	0.000342257	0.00242707
12.8435	12.6684	0.000113185	0.00321856
12.844	12.668	0.00013439	0.00428702
12.8445	12.6675	-0.00134427	0.00366802
12.8449	12.667	-0.000553825	0.0026897
12.8454	12.6666	0.000425083	0.00224368
12.8459	12.6661	9.50465e-05	0.00301166
12.8464	12.6656	0.000159734	0.00427751
12.8468	12.6651	-0.00131846	0.00361246
12.8473	12.6646	-0.000361297	0.00269797
12.8478	12.6642	0.00046703	0.00233677
12.8482	12.6637	2.9824e-05	0.00317996
12.8487	12.6632	-5.12003e-05	0.00425121
12.8492	12.6628	-0.00133787	0.00353322
12.8497	12.6623	-0.000361564	0.00261857
12.8501	12.6619	0.000648822	0.00231686
12.8506	12.6614	-9.95508e-05	0.00307737
12.8511	12.6609	-8.44996e-06	0.00422818
12.8516	12.6604	-0.00124844	0.00354658
12.852	12.6599	-0.000451792	0.00261202
12.8525	12.6595	0.000600204	0.00250664
12.853	12.659	-8.00751e-05	0.00321872
12.8534	12.6586	-0.000215318	0.0042095
12.8539	12.6581	-0.00115101	0.00371612
12.8544	12.6576	-0.000573765	0.0025499
12.8549	12.6571	0.00066589	0.00249836
12.8553	12.6567	-8.4944e-05	0.00337581
12.8558	12.6562	-0.00020105	0.00429341
12.8563	12.6557	-0.00103751	0.0035796
12.8567	12.6552	-0.000555092	0.00261513
12.8572	12.6547	0.000718307	0.00252328
12.8577	12.6543	-0.000125822	0.00331836
12.8582	12.6538	-0.000238325	0.00425465
12.8586	12.6533	-0.000976889	0.0035628
12.8591	12.6529	-0.000579633	0.00256564
12.8596	12.6524	0.000795336	0.00249869
12.8601	12.6519	-9.90158e-05	0.00338794
12.8605	12.6515	-0.000319082	0.00432111
12.861	12.651	-0.000905602	0.00357756
12.8615	12.6505	-0.000519814	0.00246755
12.8619	12.65	0.000903702	0.00260767
12.8624	12.6495	-6.83397e-05	0.0034085
12.8629	12.6491	-0.000371035	0.00437871
12.8634	12.6486	-0.000927076	0.00356993
12.8638	12.6481	-0.000528749	0.00238675
12.8643	12.6477	0.00092464	0.00265422
12.8648	12.6472	-5.12003e-05	0.00336459
12.8652	12.6467	-0.000561494	0.00431332
12.8657	12.6462	-0.00097976	0.00348447
12.8662	12.6457	-0.00057603	0.0023947
12.8667	12.6453	0.00103994	0.00267322
12.8671	12.6448	-2.33242e-05	0.00337892
12.8676	12.6443	-0.000554557	0.00414829
12.8681	12.6438	-0.00080817	0.00345365
12.8686	12.6434	-0.000585768	0.00237242
12.869	12.6429	0.000982461	0.00271665
12.8695	12.6424	-0.00021225	0.00358099
12.87	12.642	-0.000609506	0.00419237
12.8704	12.6415	-0.000851384	0.00360746
12.8709	12.641	-0.000678599	0.00222017
12.8714	12.6406	0.000964519	0.00262914
12.8719	12.6401	-7.64725e-05	0.00354395
12.8723	12.6396	-0.000606439	0.00416402
12.8728	12.6392	-0.000860854	0.00349569
12.8733	12.6387	-0.000622579	0.0022236
12.8737	12.6382	0.00104274	0.0026525
12.8742	12.6378	-0.000172371	0.00350691
12.8747	12.6373	-0.000678064	0.00423703
12.8752	12.6368	-0.000763422	0.00356543
12.8756	12.6363	-0.000742216	0.00226982
12.8761	12.6359	0.00108036	0.00270125
12.8766	12.6354	-0.000209182	0.00356747
12.8771	12.6349	-0.00078543	0.00414706
12.8775	12.6344	-0.000636384	0.00337409
12.878	12.634	-0.000631247	0.00214109
12.8785	12.6335	0.000940513	0.00286096
12.8789	12.633	-0.000183375	0.00370662
12.8794	12.6326	-0.000823776	0.00421851
12.8799	12.6321	-0.000707206	0.0035061
12.8804	12.6316	-0.000602372	0.00219558
12.8808	12.6312	0.00102794	0.0026402
12.8813	12.6307	-0.000184909	0.00374619
12.8818	12.6302	-0.000886929	0.0040924
12.8822	12.6297	-0.000527216	0.00349037
12.8827	12.6293	-0.00063205	0.00218033
12.8832	12.6288	0.000930775	0.00273845
12.8837	12.6283	-2.15229e-05	0.00369711
12.8841	12.6279	-0.000899663	0.00405724
12.8846	12.6274	-0.000448724	0.00332599
12.8851	12.6269	-0.000485535	0.00214109
12.8856	12.6264	0.000840548	0.00287546
12.886	12.626	-3.22596e-05	0.00367736
12.8865	12.6255	-0.00116662	0.00412682
12.887	12.625	-0.000511343	0.0033028
12.8874	12.6245	-0.000450793	0.00225893
12.8879	12.624	0.000823944	0.0028739
12.8884	12.6236	-8.24114e-05	0.0037457
12.8889	12.6231	-0.00104184	0.0040647
12.8893	12.6226	-0.000473532	0.00343948
12.8898	12.6222	-0.000435455	0.00215805
12.8903	12.6217	0.000802738	0.00277361
12.8907	12.6212	2.269e-05	0.00375988
12.8912	12.6207	-0.00118809	0.00402562
12.8917	12.6202	-0.000347493	0.00319038
12.8922	12.6198	-0.000298143	0.00227884
12.8926	12.6193	0.000732914	0.00289054
12.8931	12.6188	-5.06653e-05	0.00395695
12.8936	12.6184	-0.00116815	0.00390451
12.8941	12.6179	-0.000461529	0.00323397
12.8945	12.6174	-0.000257997	0.00213175
12.895	12.617	0.00066696	0.00291513
12.8955	12.6165	9.22463e-05	0.00397113
12.8959	12.616	-0.00124891	0.00391884
12.8964	12.6155	-0.00046713	0.0031594
12.8969	12.6151	-0.000209182	0.00211602
12.8974	12.6146	0.000560593	0.0028113
12.8978	12.6141	8.25085e-05	0.00389098
12.8983	12.6136	-0.00139795	0.00392303
12.8988	12.6132	-0.00038277	0.00303501
