# 1304     AichiSR QXAFS
# Start     : 8.9544
# End       : 9.0544
# Dir       : Backward
# Points    : 300
# ScanTime  : 1.01549
# Date      : 13.04.23 23:25
# Ring Cur. : 0.9[mA]
12.7557	12.6123	5.51675e-05	0.00217313
12.7562	12.6128	0.00042148	0.00297928
12.7566	12.6132	0.000157933	0.00413632
12.7571	12.6137	-0.00148438	0.00376594
12.7576	12.6142	-0.000319349	0.00289022
12.7581	12.6146	0.000117519	0.00211306
12.7585	12.6151	0.000306248	0.00298846
12.759	12.6156	0.000201147	0.00412247
12.7595	12.6161	-0.00138162	0.00378946
12.7599	12.6166	-0.000269536	0.00300371
12.7604	12.617	0.000269901	0.00234832
12.7609	12.6175	0.000326919	0.00301928
12.7614	12.618	0.000251031	0.00426694
12.7618	12.6184	-0.00138902	0.00376004
12.7623	12.6189	-0.000211448	0.00287014
12.7628	12.6194	0.000271167	0.00228228
12.7632	12.6198	0.000277302	0.00303501
12.7637	12.6203	0.00034586	0.00423376
12.7642	12.6208	-0.00136628	0.003777
12.7647	12.6213	-0.000394773	0.00291905
12.7651	12.6218	0.000259431	0.00231202
12.7656	12.6222	0.000187075	0.00294085
12.7661	12.6227	0.000332055	0.00428439
12.7666	12.6232	-0.00141003	0.00376938
12.767	12.6236	-0.000494471	0.0028127
12.7675	12.6241	0.000391339	0.00239282
12.768	12.6246	0.000182741	0.00311876
12.7684	12.6251	0.000116787	0.00430087
12.7689	12.6255	-0.00132233	0.00367113
12.7694	12.626	-0.000231922	0.0028208
12.7699	12.6265	0.000399275	0.00236947
12.7703	12.627	5.15648e-05	0.00308918
12.7708	12.6274	0.000270168	0.0042467
12.7713	12.6279	-0.00129906	0.00358099
12.7717	12.6284	-0.000444925	0.00278655
12.7722	12.6289	0.000568797	0.00237897
12.7727	12.6293	0.000147998	0.00313669
12.7732	12.6298	7.81746e-05	0.00419344
12.7736	12.6303	-0.00139109	0.00360639
12.7741	12.6307	-0.000344425	0.00271944
12.7746	12.6312	0.00051918	0.00234644
12.7751	12.6317	5.51675e-05	0.00318275
12.7755	12.6322	0.000120854	0.0042372
12.776	12.6326	-0.00122437	0.00352602
12.7765	12.6331	-0.000426983	0.00264847
12.7769	12.6335	0.000604806	0.00239561
12.7774	12.634	-3.04583e-05	0.0031857
12.7779	12.6345	-4.65988e-05	0.00428702
12.7784	12.635	-0.00117709	0.00364638
12.7788	12.6354	-0.000394238	0.00253901
12.7793	12.6359	0.000714508	0.0024056
12.7798	12.6364	-3.17116e-07	0.00319832
12.7802	12.6369	-0.00016497	0.00425883
12.7807	12.6373	-0.00115868	0.0035002
12.7812	12.6378	-0.000400177	0.00252188
12.7817	12.6383	0.000661557	0.00242305
12.7821	12.6387	-5.09328e-05	0.00320036
12.7826	12.6392	-0.000208915	0.00431472
12.7831	12.6397	-0.00114641	0.00354395
12.7836	12.6401	-0.000526681	0.0025295
12.784	12.6406	0.000648822	0.00255892
12.7845	12.6411	1.09545e-05	0.003281
12.785	12.6416	-0.00025113	0.00428857
12.7854	12.642	-0.00115055	0.00359968
12.7859	12.6425	-0.000477866	0.00256187
12.7864	12.6429	0.00086302	0.00244854
12.7869	12.6434	-0.000106952	0.00334483
12.7873	12.6439	-0.000299945	0.00422474
12.7878	12.6443	-0.00103038	0.00361385
12.7883	12.6448	-0.000383769	0.00236947
12.7887	12.6453	0.000962522	0.00260144
12.7892	12.6458	3.018e-06	0.00340834
12.7897	12.6463	-0.00033549	0.00421089
12.7902	12.6468	-0.000922742	0.00360295
12.7906	12.6472	-0.000439521	0.00238348
12.7911	12.6477	0.000883227	0.00252671
12.7916	12.6482	-2.63918e-05	0.00338966
12.7921	12.6487	-0.000458462	0.00418566
12.7925	12.6491	-0.000793634	0.00363983
12.793	12.6496	-0.00046433	0.00231497
12.7935	12.6501	0.000971724	0.00253794
12.7939	12.6505	-3.19921e-05	0.00338204
12.7944	12.651	-0.000454324	0.00424514
12.7949	12.6515	-0.00067653	0.00355297
12.7954	12.652	-0.000485803	0.00229318
12.7958	12.6524	0.00093131	0.00262619
12.7963	12.6529	-4.96168e-08	0.00358443
12.7968	12.6534	-0.000578366	0.00433421
12.7972	12.6538	-0.000847318	0.00352838
12.7977	12.6543	-0.000701071	0.00229178
12.7982	12.6548	0.000955851	0.00259629
12.7987	12.6553	-0.000115085	0.00351233
12.7991	12.6558	-0.000639184	0.00424015
12.7996	12.6562	-0.000630783	0.00349086
12.8001	12.6567	-0.00062051	0.00209717
12.8006	12.6572	0.0010108	0.00275665
12.801	12.6577	-0.000120953	0.00366163
12.8015	12.6581	-0.000800501	0.00425137
12.802	12.6586	-0.000627912	0.00348726
12.8024	12.6591	-0.000632317	0.00229195
12.8029	12.6595	0.00104228	0.0027523
12.8034	12.66	-5.02015e-05	0.00345768
12.8039	12.6605	-0.000762423	0.00428595
12.8043	12.6609	-0.000540021	0.00345784
12.8048	12.6614	-0.000464597	0.00227809
12.8053	12.6619	0.00093024	0.00275214
12.8057	12.6623	-6.65383e-05	0.00366163
12.8062	12.6628	-0.000771626	0.00432454
12.8067	12.6633	-0.000517745	0.00343046
12.8072	12.6637	-0.000624381	0.00210405
12.8076	12.6642	0.000925175	0.00285957
12.8081	12.6647	-1.94541e-05	0.00363082
12.8086	12.6652	-0.000897933	0.00419655
12.8091	12.6657	-0.000571964	0.00335745
12.8095	12.6661	-0.000627448	0.00212896
12.81	12.6666	0.000937178	0.00270855
12.8105	12.6671	1.96224e-05	0.00372095
12.8109	12.6676	-0.000736349	0.00403201
12.8114	12.668	-0.000549688	0.00337581
12.8119	12.6685	-0.00051161	0.00215182
12.8124	12.669	0.00091797	0.00274419
12.8128	12.6694	1.22208e-05	0.00369309
12.8133	12.6699	-0.000968488	0.00416746
12.8138	12.6703	-0.000366701	0.00319553
12.8142	12.6708	-0.000600838	0.00226548
12.8147	12.6713	0.000889095	0.00274919
12.8152	12.6718	-2.45905e-05	0.00380052
12.8157	12.6722	-0.00106178	0.00415672
12.8161	12.6727	-0.000331352	0.00328379
12.8166	12.6732	-0.000472266	0.00215199
12.8171	12.6736	0.000832879	0.00291218
12.8176	12.6741	5.82351e-05	0.00366974
12.818	12.6746	-0.00118936	0.00411436
12.8185	12.6751	-0.000395308	0.00330591
12.819	12.6755	-0.000372301	0.00219869
12.8194	12.676	0.000828278	0.00283949
12.8199	12.6765	2.29575e-05	0.00392909
12.8204	12.677	-0.00107052	0.00395014
12.8209	12.6775	-0.000314284	0.00308671
12.8213	12.6779	-0.000332155	0.00224803
12.8218	12.6784	0.000764125	0.00281721
12.8223	12.6789	8.61823e-06	0.00389984
12.8227	12.6793	-0.00109733	0.00404258
12.8232	12.6798	-0.000484269	0.00311941
12.8237	12.6803	-0.000257266	0.00229645
12.8242	12.6808	0.000582601	0.00284416
12.8246	12.6812	8.02434e-05	0.00396179
12.8251	12.6817	-0.00126731	0.0039576
12.8256	12.6822	-0.000326822	0.00317062
12.8261	12.6826	-5.44642e-05	0.00208643
12.8265	12.6831	0.00045756	0.00290627
12.827	12.6836	0.000138261	0.00390155
12.8275	12.684	-0.0012203	0.00387632
12.8279	12.6845	-0.000280005	0.00312482
12.8284	12.685	-9.18106e-05	0.0021828
12.8289	12.6855	0.000562394	0.00284695
12.8294	12.686	8.2776e-05	0.00399169
12.8298	12.6864	-0.00129086	0.003841
12.8303	12.6869	-0.00038664	0.0030909
12.8308	12.6874	-0.000110751	0.00222795
12.8312	12.6879	0.000522979	0.00292914
12.8317	12.6884	0.000131858	0.00412993
12.8322	12.6888	-0.00132027	0.00385919
12.8327	12.6893	-0.000282341	0.00307377
12.8331	12.6897	7.88692e-06	0.00232882
12.8336	12.6902	0.000486435	0.00291218
12.8341	12.6907	0.000136459	0.00418786
12.8346	12.6912	-0.00141996	0.00377652
12.835	12.6916	-0.000166236	0.00285301
12.8355	12.6921	3.64943e-05	0.00219198
12.836	12.6926	0.00037807	0.00299002
12.8364	12.693	4.72309e-05	0.00414271
12.8369	12.6935	-0.00133814	0.00387321
12.8374	12.6939	-0.000354359	0.00289226
12.8379	12.6944	0.000152796	0.0022155
12.8383	12.6949	0.000430754	0.00292463
12.8388	12.6954	0.000363998	0.00419237
12.8393	12.6958	-0.0014501	0.00385501
12.8397	12.6963	-0.000321953	0.00284523
12.8402	12.6968	0.000259699	0.00230112
12.8407	12.6973	0.000373468	0.00297043
12.8412	12.6978	0.00018481	0.00427956
12.8416	12.6982	-0.00146091	0.00373808
12.8421	12.6987	-0.000216584	0.00283466
12.8426	12.6992	0.000307782	0.00227498
12.8431	12.6996	0.000256364	0.00302894
12.8435	12.7001	0.000247963	0.0042744
12.844	12.7006	-0.00145497	0.00367425
12.8445	12.701	-0.000279203	0.00293037
12.8449	12.7015	0.000348392	0.00231079
12.8454	12.702	0.000211616	0.00309557
12.8459	12.7024	0.000291374	0.00429276
12.8464	12.7029	-0.00141283	0.00366335
12.8468	12.7034	-0.000261064	0.0027968
12.8473	12.7038	0.000492374	0.00228416
12.8478	12.7043	0.000259431	0.00313605
12.8482	12.7048	0.000172736	0.00429587
12.8487	12.7053	-0.00130593	0.00368858
12.8492	12.7058	-0.000287407	0.00290144
12.8497	12.7063	0.000350729	0.00232759
12.8501	12.7067	7.38407e-05	0.00315038
12.8506	12.7072	0.000158931	0.00430709
12.8511	12.7077	-0.00139082	0.00371456
12.8516	12.7082	-0.000341625	0.00284679
12.852	12.7086	0.00052585	0.00244608
12.8525	12.7091	6.43703e-05	0.00306475
12.853	12.7096	8.09747e-05	0.00426538
12.8534	12.71	-0.0014187	0.00359377
12.8539	12.7105	-0.000384572	0.00267773
12.8544	12.711	0.00065469	0.00228899
12.8549	12.7115	3.74931e-06	0.00308376
12.8553	12.7119	8.58436e-05	0.00431537
12.8558	12.7124	-0.00126658	0.00365277
12.8563	12.7129	-0.000386569	0.00270871
12.8567	12.7133	0.000622944	0.00249681
12.8572	12.7138	0.000106318	0.00315817
12.8577	12.7143	-2.9727e-05	0.00428734
12.8582	12.7147	-0.0012103	0.00356854
12.8586	12.7152	-0.000376368	0.00265701
12.8591	12.7157	0.000566193	0.00241118
12.8596	12.7162	4.13632e-05	0.00320471
12.8601	12.7167	-7.0141e-05	0.00418115
12.8605	12.7171	-0.0011076	0.00359189
12.861	12.7176	-0.000407846	0.00252983
12.8615	12.7181	0.000746183	0.00246428
12.8619	12.7186	8.58436e-05	0.00315071
12.8624	12.719	-0.000215585	0.00417696
12.8629	12.7195	-0.00109273	0.0035796
12.8634	12.7199	-0.000385303	0.00247534
12.8638	12.7204	0.000810407	0.00237602
12.8643	12.7209	4.36283e-05	0.00320348
12.8648	12.7214	-0.000307881	0.00429931
12.8652	12.7218	-0.000949815	0.00348275
12.8657	12.7223	-0.000444658	0.00248328
12.8662	12.7228	0.000904166	0.00248172
12.8667	12.7232	-5.52667e-05	0.00328068
12.8671	12.7237	-0.00033829	0.0042453
12.8676	12.7242	-0.000958483	0.00357165
12.8681	12.7246	-0.000537221	0.00241757
12.8686	12.7251	0.000890361	0.00257621
12.869	12.7256	3.13578e-05	0.00330387
12.8695	12.7261	-0.000265202	0.00420155
12.87	12.7265	-0.000990693	0.00355437
12.8704	12.727	-0.000530283	0.00246476
12.8709	12.7275	0.000948914	0.00256408
12.8714	12.728	-2.41267e-05	0.00340088
12.8719	12.7284	-0.000501141	0.00428235
12.8723	12.7289	-0.000976158	0.00353944
12.8728	12.7294	-0.000478134	0.00241569
12.8733	12.7298	0.00088296	0.0024873
12.8737	12.7303	-0.000129157	0.00340072
12.8742	12.7308	-0.000413446	0.00436191
12.8747	12.7313	-0.000862656	0.00340367
12.8752	12.7317	-0.000603442	0.00223262
12.8756	12.7322	0.00109056	0.00259973
12.8761	12.7327	2.16912e-05	0.00353477
12.8766	12.7331	-0.000558427	0.004214
12.8771	12.7336	-0.000836046	0.00347405
12.8775	12.7341	-0.000466862	0.00229957
12.878	12.7346	0.00106755	0.00274484
12.8785	12.735	-4.96665e-05	0.00341522
12.8789	12.7355	-0.000644053	0.00425851
12.8794	12.736	-0.000831177	0.00344275
12.8799	12.7365	-0.000657857	0.00221721
12.8804	12.737	0.00102461	0.00265873
12.8808	12.7374	-0.000109217	0.00351249
12.8813	12.7379	-0.000600571	0.00423285
12.8818	12.7384	-0.000737882	0.00352167
12.8822	12.7389	-0.000604441	0.00232882
12.8827	12.7393	0.00102641	0.0026693
12.8832	12.7398	-6.98735e-06	0.00359673
12.8837	12.7403	-0.000736616	0.0042263
12.8841	12.7407	-0.000567095	0.00344431
12.8846	12.7412	-0.000580096	0.00226875
12.8851	12.7417	0.00107982	0.00266495
12.8856	12.7422	-0.000186175	0.00368096
12.886	12.7426	-0.000788498	0.0041746
12.8865	12.7431	-0.000606974	0.00347422
12.887	12.7436	-0.000570697	0.00221082
12.8874	12.744	0.00095125	0.00290144
12.8879	12.7445	2.80939e-05	0.00367425
12.8884	12.745	-0.000883327	0.00424047
12.8889	12.7455	-0.000600838	0.00341441
12.8893	12.7459	-0.000530283	0.00226188
12.8898	12.7464	0.00087736	0.00276738
12.8903	12.7469	-6.29357e-05	0.00365916
12.8907	12.7474	-0.000912736	0.00410781
12.8912	12.7478	-0.000474799	0.00340399
12.8917	12.7483	-0.000485803	0.00215445
12.8922	12.7488	0.000782531	0.00272723
12.8926	12.7492	5.79676e-05	0.00372997
12.8931	12.7497	-0.00100043	0.00401333
12.8936	12.7502	-0.000433386	0.00330698
12.8941	12.7506	-0.000521812	0.00216009
12.8945	12.7511	0.000885296	0.00269314
12.895	12.7516	9.95573e-06	0.00365385
12.8955	12.752	-0.001103	0.00407265
12.8959	12.7525	-0.000362563	0.00333705
12.8964	12.753	-0.000462796	0.00211757
12.8969	12.7534	0.000830079	0.0028594
12.8974	12.7539	0.000100914	0.00384207
12.8978	12.7544	-0.0011022	0.00406626
12.8983	12.7548	-0.000446191	0.00326478
12.8988	12.7553	-0.000401443	0.00210872
