# 1304     AichiSR QXAFS
# Start     : 8.9544
# End       : 9.0544
# Dir       : Backward
# Points    : 300
# ScanTime  : 1.01549
# Date      : 13.04.23 22:38
# Ring Cur. : 0.9[mA]
12.7557	12.6119	-0.000407311	0.00318726
12.7562	12.6124	-0.000365631	0.00206062
12.7566	12.6128	0.00061021	0.00287497
12.7571	12.6133	4.31645e-05	0.00384846
12.7576	12.6138	-0.00129212	0.00390402
12.7581	12.6142	-0.000456126	0.00308606
12.7585	12.6147	-0.000124556	0.00204128
12.759	12.6152	0.000570794	0.00284244
12.7595	12.6157	9.29777e-05	0.00382355
12.7599	12.6161	-0.00143584	0.00396039
12.7604	12.6166	-0.00044159	0.00316284
12.7609	12.6171	-0.000170837	0.00205095
12.7614	12.6176	0.000548322	0.00278016
12.7618	12.6181	-1.13213e-05	0.00388722
12.7623	12.6185	-0.00147645	0.00383428
12.7628	12.619	-0.000427518	0.00305557
12.7632	12.6194	-0.00016497	0.00208193
12.7637	12.6199	0.000469367	0.00278172
12.7642	12.6204	5.95014e-05	0.00382715
12.7647	12.6209	-0.00132667	0.00378946
12.7651	12.6214	-0.000442856	0.00284679
12.7656	12.6218	-7.52062e-05	0.00211151
12.7661	12.6223	0.000417681	0.00276148
12.7666	12.6228	5.69688e-05	0.00391197
12.767	12.6232	-0.00145497	0.00375053
12.7675	12.6237	-0.000413714	0.00295389
12.768	12.6242	-0.000103617	0.00209078
12.7684	12.6246	0.000384669	0.00290734
12.7689	12.6251	0.000170471	0.00407576
12.7694	12.6256	-0.001534	0.00377356
12.7699	12.6261	-0.000352094	0.00288136
12.7703	12.6266	-4.9934e-05	0.00212815
12.7708	12.627	0.000511511	0.00286595
12.7713	12.6275	0.000114718	0.00407855
12.7717	12.628	-0.00160816	0.00364934
12.7722	12.6285	-0.000377438	0.00285768
12.7727	12.6289	3.31592e-05	0.00206308
12.7732	12.6294	0.000293175	0.00278591
12.7736	12.6299	0.000122388	0.00416214
12.7741	12.6303	-0.00136755	0.00360279
12.7746	12.6308	-0.000487069	0.00283556
12.7751	12.6313	5.49e-05	0.00220615
12.7755	12.6318	0.000274234	0.0029234
12.776	12.6322	0.000277837	0.00414287
12.7765	12.6327	-0.00158182	0.00366195
12.7769	12.6332	-0.000320152	0.00284867
12.7774	12.6336	0.000220551	0.00210839
12.7779	12.6341	0.000212615	0.00304124
12.7784	12.6346	0.000107317	0.00415951
12.7788	12.635	-0.0014289	0.00361959
12.7793	12.6355	-0.000415783	0.00285334
12.7798	12.636	0.000217484	0.00217206
12.7802	12.6365	0.000182741	0.0029606
12.7807	12.6369	9.35127e-05	0.00424654
12.7812	12.6374	-0.0014103	0.00363286
12.7817	12.6379	-0.000431585	0.00291996
12.7821	12.6384	0.000157665	0.00222639
12.7826	12.6388	0.000168402	0.0028558
12.7831	12.6393	0.000149996	0.00417696
12.7836	12.6398	-0.00143377	0.00367785
12.784	12.6402	-0.000366166	0.0028739
12.7845	12.6407	0.000164335	0.00226065
12.785	12.6412	0.000186076	0.00288775
12.7854	12.6416	0.000160733	0.00422474
12.7859	12.6421	-0.00145271	0.00350036
12.7864	12.6426	-0.000401711	0.00272674
12.7869	12.643	0.000336657	0.00217362
12.7873	12.6435	0.00012879	0.00304247
12.7878	12.644	8.04397e-05	0.004278
12.7883	12.6444	-0.00149972	0.00357632
12.7887	12.6449	-0.000425449	0.00267913
12.7892	12.6454	0.00032032	0.00232432
12.7897	12.6459	0.000106051	0.00298428
12.7902	12.6464	4.00969e-05	0.00414034
12.7906	12.6468	-0.00133994	0.00356264
12.7911	12.6473	-0.000426519	0.00268224
12.7916	12.6478	0.000458826	0.00228556
12.7921	12.6483	1.14183e-05	0.00305664
12.7925	12.6487	-4.47975e-05	0.00428202
12.793	12.6492	-0.00131513	0.00355002
12.7935	12.6497	-0.000418315	0.00269314
12.7939	12.6501	0.000457096	0.00229506
12.7944	12.6506	1.96224e-05	0.00304451
12.7949	12.6511	-7.70075e-05	0.00429062
12.7954	12.6516	-0.00139902	0.00354486
12.7958	12.6521	-0.000468931	0.00263602
12.7963	12.6525	0.000526581	0.00229474
12.7968	12.653	7.0773e-05	0.00312998
12.7972	12.6535	-1.43889e-05	0.00417648
12.7977	12.6539	-0.00124151	0.00350315
12.7982	12.6544	-0.000409844	0.00250647
12.7987	12.6549	0.000523246	0.00229023
12.7991	12.6554	-2.30567e-05	0.00314227
12.7996	12.6558	-1.79915e-05	0.00414239
12.8001	12.6563	-0.00124384	0.00356698
12.8006	12.6568	-0.000548689	0.00257605
12.801	12.6573	0.00053145	0.00235873
12.8015	12.6577	7.35192e-06	0.00323102
12.802	12.6582	-4.9934e-05	0.00431816
12.8024	12.6587	-0.00119449	0.00357756
12.8029	12.6592	-0.000525682	0.0025535
12.8034	12.6596	0.000682031	0.00244527
12.8039	12.6601	-0.000125626	0.00314662
12.8043	12.6606	-0.00023219	0.00419377
12.8048	12.661	-0.00122743	0.00349864
12.8053	12.6615	-0.000492473	0.00249042
12.8057	12.662	0.000541188	0.00241912
12.8062	12.6624	2.93602e-05	0.00320766
12.8067	12.6629	-0.000188244	0.00430103
12.8072	12.6634	-0.00107586	0.00368047
12.8076	12.6638	-0.000587569	0.00245198
12.8081	12.6643	0.000697102	0.00225597
12.8086	12.6648	-6.01356e-05	0.00322372
12.8091	12.6653	-0.000307346	0.00426522
12.8095	12.6657	-0.00112954	0.00345177
12.81	12.6662	-0.000510344	0.00247517
12.8105	12.6667	0.000863288	0.00235841
12.8109	12.6672	3.16253e-05	0.00329206
12.8114	12.6676	-0.000251594	0.00435036
12.8119	12.6681	-0.000991228	0.00348463
12.8124	12.6686	-0.000607972	0.00240995
12.8128	12.669	0.000837748	0.00247877
12.8133	12.6695	5.49e-05	0.00316112
12.8138	12.67	-0.000289208	0.00425014
12.8142	12.6704	-0.0010994	0.00362164
12.8147	12.6709	-0.000463795	0.00231218
12.8152	12.6714	0.000758721	0.00249107
12.8157	12.6718	4.95672e-05	0.00323381
12.8161	12.6723	-0.000320152	0.00407716
12.8166	12.6728	-0.000974891	0.00350224
12.8171	12.6732	-0.000502675	0.00228695
12.8176	12.6737	0.000879161	0.0026402
12.818	12.6742	-9.7482e-05	0.00333361
12.8185	12.6747	-0.00054102	0.00423564
12.819	12.6751	-0.000898201	0.00349193
12.8194	12.6756	-0.000544355	0.00225302
12.8199	12.6761	0.000903434	0.00260252
12.8204	12.6766	-0.000112285	0.00328379
12.8209	12.6771	-0.000499875	0.00416853
12.8213	12.6775	-0.000884129	0.00348307
12.8218	12.678	-0.000578099	0.00214404
12.8223	12.6785	0.000929777	0.0025549
12.8227	12.679	8.48448e-05	0.00331198
12.8232	12.6794	-0.000556626	0.00412091
12.8237	12.6799	-0.00091147	0.00336351
12.8242	12.6804	-0.00060264	0.00219788
12.8246	12.6808	0.00097786	0.00266307
12.8251	12.6813	-0.000117422	0.00340523
12.8256	12.6818	-0.000543089	0.00419328
12.8261	12.6823	-0.000755753	0.00341022
12.8265	12.6827	-0.000546888	0.00207382
12.827	12.6832	0.000967854	0.00256891
12.8275	12.6837	-0.000132956	0.00341392
12.8279	12.6841	-0.000693402	0.00423532
12.8284	12.6846	-0.000694401	0.00338671
12.8289	12.6851	-0.000790032	0.00225426
12.8294	12.6856	0.000901169	0.00263226
12.8298	12.6861	-6.70022e-05	0.0034208
12.8303	12.6865	-0.000724078	0.00413149
12.8308	12.687	-0.000735546	0.00335524
12.8312	12.6875	-0.000742751	0.00223638
12.8317	12.688	0.00103941	0.00257686
12.8322	12.6884	-0.000106417	0.0035578
12.8327	12.6889	-0.00077596	0.0041346
12.8331	12.6894	-0.000613109	0.00340383
12.8336	12.6898	-0.000663261	0.00215633
12.8341	12.6903	0.000967319	0.00267725
12.8346	12.6908	-0.000154964	0.00354363
12.835	12.6912	-0.000812771	0.00421121
12.8355	12.6917	-0.000628714	0.00332599
12.836	12.6922	-0.000736616	0.00218345
12.8364	12.6926	0.000851017	0.00264938
12.8369	12.6931	-0.00017164	0.0035097
12.8374	12.6936	-0.000824578	0.00409412
12.8379	12.694	-0.000631247	0.00324642
12.8383	12.6945	-0.000697468	0.00204767
12.8388	12.695	0.000842813	0.00268347
12.8393	12.6955	-0.000171836	0.00352151
12.8397	12.6959	-0.00084705	0.00412977
12.8402	12.6964	-0.000648386	0.00326543
12.8407	12.6969	-0.000639719	0.00213626
12.8412	12.6974	0.000932844	0.00271059
12.8416	12.6978	-5.55342e-05	0.00361648
12.8421	12.6983	-0.00090867	0.00397022
12.8426	12.6988	-0.000593437	0.00328878
12.8431	12.6992	-0.000658392	0.00201498
12.8435	12.6997	0.000957653	0.00273936
12.844	12.7002	-0.000140696	0.00369792
12.8445	12.7006	-0.00102244	0.00408339
12.8449	12.7011	-0.000520349	0.00339621
12.8454	12.7016	-0.000601641	0.00206464
12.8459	12.7021	0.000943848	0.00275992
12.8464	12.7025	-2.45905e-05	0.00362255
12.8468	12.703	-0.00100683	0.00410535
12.8473	12.7035	-0.000404511	0.00325437
12.8478	12.7039	-0.00041218	0.00206947
12.8482	12.7044	0.000897567	0.00275263
12.8487	12.7049	4.28431e-06	0.00363033
12.8492	12.7054	-0.00116328	0.0040334
12.8497	12.7059	-0.000442589	0.00325765
12.8501	12.7063	-0.000408577	0.00197122
12.8506	12.7068	0.000803737	0.00281007
12.8511	12.7073	-1.04843e-06	0.00377373
12.8516	12.7078	-0.00109806	0.00399497
12.852	12.7083	-0.000447458	0.00323085
12.8525	12.7087	-0.000433921	0.00223606
12.853	12.7092	0.000669226	0.00273378
12.8534	12.7097	-9.6412e-05	0.00383305
12.8539	12.7101	-0.00109913	0.00401505
12.8544	12.7106	-0.000341357	0.00322635
12.8549	12.7111	-0.000307079	0.00202293
12.8553	12.7116	0.000789665	0.00287293
12.8558	12.712	7.08442e-06	0.0039277
12.8563	12.7125	-0.0012305	0.00406299
12.8567	12.7129	-0.000535616	0.00314399
12.8572	12.7134	-0.00035056	0.00225007
12.8577	12.7139	0.000661557	0.00284335
12.8582	12.7144	2.47588e-05	0.00386575
12.8586	12.7148	-0.00123664	0.0038687
12.8591	12.7153	-0.00035056	0.0031222
12.8596	12.7158	-0.000268466	0.00210979
12.8601	12.7163	0.000572863	0.00273985
12.8605	12.7167	-7.98616e-06	0.00392056
12.861	12.7172	-0.00134174	0.00394826
12.8615	12.7177	-0.000375101	0.00305697
12.8619	12.7182	-0.00030888	0.00212568
12.8624	12.7186	0.000645487	0.00268568
12.8629	12.7191	-4.04636e-05	0.00391836
12.8634	12.7196	-0.0013108	0.00396957
12.8638	12.72	-0.000353628	0.00307254
12.8643	12.7205	-0.000173905	0.00206931
12.8648	12.721	0.000600008	0.00281442
12.8652	12.7215	-4.21937e-05	0.00401005
12.8657	12.7219	-0.00138115	0.00379085
12.8662	12.7224	-0.000486802	0.00302583
12.8667	12.7228	-2.17904e-05	0.00203973
12.8671	12.7233	0.000457025	0.00277549
12.8676	12.7238	5.02985e-05	0.0039073
12.8681	12.7242	-0.00139569	0.00375365
12.8686	12.7247	-0.00041218	0.00307549
12.869	12.7252	-8.24114e-05	0.00218796
12.8695	12.7257	0.000565462	0.00274886
12.87	12.7261	0.000111918	0.00403045
12.8704	12.7266	-0.00131593	0.00374758
12.8709	12.7271	-0.000298411	0.00292603
12.8714	12.7276	-5.02015e-05	0.00207865
12.8719	12.7281	0.00030978	0.00274763
12.8723	12.7285	8.63786e-05	0.004018
12.8728	12.729	-0.00138342	0.00367704
12.8733	12.7294	-0.000329622	0.00301788
12.8737	12.7299	-6.93385e-05	0.00219058
12.8742	12.7304	0.000365532	0.00275928
12.8747	12.7309	7.79071e-05	0.00409879
12.8752	12.7314	-0.00155394	0.00383863
12.8756	12.7318	-0.000177775	0.00287465
12.8761	12.7323	-6.45235e-06	0.00211725
12.8766	12.7328	0.000311848	0.0027945
12.8771	12.7332	0.000173806	0.00412027
12.8775	12.7337	-0.00159995	0.00365852
12.878	12.7342	-0.000393774	0.00284711
12.8785	12.7347	9.22463e-05	0.0021297
12.8789	12.7351	0.000287307	0.00294176
12.8794	12.7356	0.000181207	0.00421696
12.8799	12.7361	-0.00150539	0.00365245
12.8804	12.7366	-0.000442589	0.00288694
12.8808	12.7371	0.000105248	0.00213781
12.8813	12.7375	0.000188341	0.00278983
12.8818	12.738	0.000200879	0.00412059
12.8822	12.7385	-0.0016291	0.00369964
12.8827	12.739	-0.000338557	0.00286096
12.8832	12.7394	0.000183276	0.00223557
12.8837	12.7399	0.000254295	0.00294594
12.8841	12.7403	9.17113e-05	0.00410437
12.8846	12.7408	-0.00149819	0.00371285
12.8851	12.7413	-0.0002672	0.00289366
12.8856	12.7418	0.000184007	0.00219805
12.886	12.7422	0.000247963	0.00309261
12.8865	12.7427	5.0031e-05	0.00408618
12.887	12.7432	-0.00142763	0.00370088
12.8874	12.7436	-0.000305545	0.00295872
12.8879	12.7441	0.000223619	0.00228588
12.8884	12.7446	0.00014206	0.00300903
12.8889	12.7451	0.000191409	0.00428734
12.8893	12.7455	-0.00148898	0.00358255
12.8898	12.746	-0.000310681	0.00275992
12.8903	12.7465	0.000344593	0.00234987
12.8907	12.747	0.000219552	0.00287325
12.8912	12.7475	0.000114986	0.00424842
12.8917	12.7479	-0.00142456	0.00361058
12.8922	12.7484	-0.000271801	0.00261841
12.8926	12.7489	0.000286041	0.0021551
12.8931	12.7493	0.000116787	0.00303034
12.8936	12.7498	4.77659e-05	0.00424031
12.8941	12.7502	-0.00151073	0.00359763
12.8945	12.7507	-0.000399642	0.00273067
12.895	12.7512	0.000450426	0.00220927
12.8955	12.7517	0.000177141	0.0030319
12.8959	12.7521	9.88454e-05	0.00421572
12.8964	12.7526	-0.00137702	0.00368187
12.8969	12.7531	-0.000376903	0.00271773
12.8974	12.7535	0.000389074	0.00232727
12.8978	12.754	8.40423e-05	0.00302427
12.8983	12.7545	2.29575e-05	0.00424917
12.8988	12.7549	-0.00138242	0.00362475
