# 1304     AichiSR QXAFS
# Start     : 8.9544
# End       : 9.0544
# Dir       : Forward
# Points    : 300
# ScanTime  : 1.01549
# Date      : 13.04.24 00:26
# Ring Cur. : 1[mA]
12.7557	12.7563	-0.00017724	0.00350814
12.7562	12.7558	-0.000773891	0.00407839
12.7566	12.7553	-0.000645319	0.00341596
12.7571	12.7548	-0.000694936	0.00227187
12.7576	12.7544	0.000970654	0.00271961
12.7581	12.7539	-0.00017057	0.00364515
12.7585	12.7534	-0.000687802	0.00418475
12.759	12.753	-0.000602372	0.00333935
12.7595	12.7525	-0.000615178	0.00220164
12.7599	12.752	0.000780195	0.00276116
12.7604	12.7516	-0.000148561	0.00347996
12.7609	12.7511	-0.000905602	0.00414845
12.7614	12.7506	-0.000669592	0.00332164
12.7618	12.7502	-0.000722009	0.00199195
12.7623	12.7497	0.00085462	0.0028317
12.7628	12.7492	-9.59482e-05	0.00361229
12.7632	12.7488	-0.000977959	0.00406873
12.7637	12.7483	-0.000544088	0.00333796
12.7642	12.7478	-0.000607509	0.00223541
12.7647	12.7474	0.000807536	0.00281876
12.7651	12.7469	-7.674e-05	0.00366614
12.7656	12.7464	-0.00105258	0.00408961
12.7661	12.7459	-0.000593169	0.00326092
12.7666	12.7455	-0.000533618	0.00205685
12.767	12.745	0.000791466	0.00283637
12.7675	12.7445	-0.000132225	0.00373013
12.768	12.744	-0.00102164	0.00407126
12.7684	12.7436	-0.000519814	0.00323225
12.7689	12.7431	-0.000581166	0.00216444
12.7694	12.7426	0.000762324	0.00277377
12.7699	12.7422	7.35192e-06	0.00382854
12.7703	12.7417	-0.00112981	0.00399448
12.7708	12.7412	-0.00062051	0.00333066
12.7713	12.7407	-0.000450793	0.0022731
12.7717	12.7403	0.000657223	0.0027814
12.7722	12.7398	-8.34102e-05	0.00380363
12.7727	12.7393	-0.00117709	0.00392319
12.7732	12.7389	-0.000407311	0.00312203
12.7736	12.7384	-0.000488603	0.00214887
12.7741	12.7379	0.000580068	0.00282064
12.7746	12.7375	7.88692e-06	0.00388255
12.7751	12.737	-0.00110166	0.00405536
12.7755	12.7365	-0.000448724	0.00315473
12.776	12.736	-0.00033829	0.00212536
12.7765	12.7355	0.000543721	0.00274747
12.7769	12.735	-0.000149364	0.00390901
12.7774	12.7346	-0.00128959	0.00394482
12.7779	12.7341	-0.000484269	0.003099
12.7784	12.7336	-0.000361297	0.00215601
12.7788	12.7331	0.000604806	0.00286128
12.7793	12.7327	0.000116787	0.00393253
12.7798	12.7322	-0.0013116	0.00386215
12.7802	12.7317	-0.000456393	0.00311908
12.7807	12.7313	-0.00031168	0.00216535
12.7812	12.7308	0.000494371	0.00283277
12.7817	12.7303	-3.38473e-06	0.00415656
12.7821	12.7298	-0.00129933	0.00387541
12.7826	12.7294	-0.000369965	0.00308016
12.7831	12.7289	-0.00016497	0.0023117
12.7836	12.7284	0.000500239	0.00279541
12.784	12.728	-7.08723e-05	0.0039903
12.7845	12.7275	-0.0014233	0.00388271
12.785	12.727	-0.000350828	0.00304312
12.7854	12.7266	-0.000232725	0.00209529
12.7859	12.7261	0.000381137	0.00288169
12.7864	12.7256	0.000133124	0.00408527
12.7869	12.7251	-0.00146264	0.00391229
12.7873	12.7246	-0.000465132	0.00291389
12.7878	12.7242	-9.90158e-05	0.00220599
12.7883	12.7237	0.000437157	0.00287932
12.7887	12.7232	1.5556e-05	0.00412059
12.7892	12.7228	-0.00152993	0.00380953
12.7897	12.7223	-0.000396307	0.00304328
12.7902	12.7219	-3.25271e-05	0.00209733
12.7906	12.7214	0.000352191	0.0028921
12.7911	12.7209	0.000103714	0.00401349
12.7916	12.7204	-0.00149592	0.00388459
12.7921	12.72	-0.000352362	0.00305058
12.7925	12.7195	6.38353e-05	0.00212117
12.793	12.719	0.000342257	0.00293585
12.7935	12.7186	6.3104e-05	0.00417336
12.7939	12.7181	-0.00155981	0.00371145
12.7944	12.7176	-0.000398108	0.00304779
12.7949	12.7172	4.69634e-05	0.00220927
12.7954	12.7167	0.000335123	0.00293692
12.7958	12.7162	0.000174804	0.00409691
12.7963	12.7157	-0.00145884	0.00385329
12.7968	12.7152	-0.000404975	0.00283949
12.7972	12.7148	6.59041e-05	0.0021179
12.7977	12.7143	0.000394139	0.00290906
12.7982	12.7138	8.30435e-05	0.00421868
12.7987	12.7133	-0.00165003	0.00376283
12.7991	12.7129	-0.000391171	0.00286563
12.7996	12.7124	0.000117251	0.00225335
12.8001	12.712	0.000133124	0.00304607
12.8006	12.7115	8.51123e-05	0.00429013
12.801	12.711	-0.00144811	0.00378151
12.8015	12.7105	-0.000434385	0.00294503
12.802	12.7101	0.00021315	0.00230268
12.8024	12.7096	9.63128e-05	0.00293816
12.8029	12.7091	5.95014e-05	0.00423875
12.8034	12.7087	-0.00153346	0.0036772
12.8039	12.7082	-0.000431585	0.00276583
12.8043	12.7077	0.000131323	0.00220288
12.8048	12.7072	0.000122655	0.00302583
12.8053	12.7068	0.000132393	0.00427612
12.8057	12.7063	-0.00143963	0.00367892
12.8062	12.7058	-0.000401443	0.00270404
12.8067	12.7053	0.000185274	0.00225254
12.8072	12.7048	3.28917e-05	0.00302443
12.8076	12.7043	7.35192e-06	0.00429636
12.8081	12.7039	-0.00146805	0.00364311
12.8086	12.7034	-0.00027667	0.00268159
12.8091	12.7029	0.000306979	0.00234751
12.8095	12.7025	5.69688e-05	0.00305697
12.81	12.702	-4.81327e-05	0.00421245
12.8105	12.7015	-0.00140336	0.00378012
12.8109	12.7011	-0.000335222	0.00277968
12.8114	12.7006	0.000393408	0.00236807
12.8119	12.7001	2.3225e-05	0.0030269
12.8124	12.6996	-1.10538e-05	0.00429947
12.8128	12.6992	-0.00135834	0.00360623
12.8133	12.6987	-0.000508079	0.00274951
12.8138	12.6983	0.00052585	0.00241789
12.8142	12.6978	-7.98616e-06	0.00300231
12.8147	12.6973	5.81811e-06	0.00414271
12.8152	12.6968	-0.00128426	0.00364032
12.8157	12.6964	-0.000458729	0.00261701
12.8161	12.6959	0.000549589	0.00240995
12.8166	12.6954	6.56366e-05	0.0030786
12.8171	12.6949	-0.000141962	0.00430758
12.8176	12.6945	-0.00119549	0.00358518
12.818	12.694	-0.000437256	0.00257825
12.8185	12.6935	0.000537318	0.00231014
12.819	12.693	1.65548e-05	0.00321078
12.8194	12.6926	-0.000148561	0.00431069
12.8199	12.6921	-0.00122977	0.00358099
12.8204	12.6917	-0.000504744	0.00271944
12.8209	12.6912	0.000600472	0.00238348
12.8213	12.6907	-0.000118153	0.00318791
12.8218	12.6902	-0.000115353	0.00420869
12.8223	12.6898	-0.0011058	0.00352307
12.8227	12.6893	-0.000537952	0.00246428
12.8232	12.6888	0.000657223	0.00239126
12.8237	12.6884	-4.14624e-05	0.00327117
12.8242	12.6879	-0.000140625	0.00426833
12.8246	12.6874	-0.00111727	0.00354084
12.8251	12.6869	-0.000492741	0.00248951
12.8256	12.6865	0.000722713	0.00241757
12.8261	12.686	-7.39399e-05	0.0031812
12.8265	12.6855	-0.000407846	0.00423908
12.827	12.685	-0.00117068	0.00359313
12.8275	12.6846	-0.000566363	0.00246616
12.8279	12.6841	0.000776128	0.00253245
12.8284	12.6836	-6.37382e-05	0.00331058
12.8289	12.6831	-0.000387639	0.00425121
12.8294	12.6827	-0.00102651	0.00354551
12.8298	12.6822	-0.000513144	0.00245166
12.8303	12.6817	0.000693303	0.00253622
12.8308	12.6813	-4.24612e-05	0.00337753
12.8312	12.6808	-0.00044439	0.00426334
12.8317	12.6803	-0.000942146	0.00344399
12.8322	12.6798	-0.000592438	0.00254056
12.8327	12.6794	0.000841815	0.00247705
12.8331	12.6789	-5.27341e-05	0.00340695
12.8336	12.6784	-0.000457927	0.00435568
12.8341	12.678	-0.00109679	0.0035701
12.8346	12.6775	-0.000574229	0.00233661
12.835	12.677	0.000918041	0.00257293
12.8355	12.6765	-0.000123289	0.00334123
12.836	12.676	-0.00054102	0.00420778
12.8364	12.6756	-0.000955951	0.00361664
12.8369	12.6751	-0.000602907	0.00232013
12.8374	12.6746	0.000873757	0.00263537
12.8379	12.6741	-0.000131226	0.00346283
12.8383	12.6736	-0.000603371	0.00416918
12.8388	12.6732	-0.00090307	0.00355764
12.8393	12.6727	-0.000624113	0.00232432
12.8397	12.6723	0.000957118	0.00266962
12.8402	12.6718	-0.000105347	0.00343014
12.8407	12.6713	-0.000650188	0.00427563
12.8412	12.6709	-0.000928074	0.00355158
12.8416	12.6704	-0.000757822	0.00228818
12.8421	12.6699	0.000945115	0.00273625
12.8426	12.6694	-0.000125554	0.00342874
12.8431	12.669	-0.000705405	0.00416107
12.8435	12.6685	-0.000855986	0.0034966
12.844	12.6681	-0.000662993	0.00232448
12.8445	12.6676	0.000998263	0.00268347
12.8449	12.6671	-0.000203047	0.00347701
12.8454	12.6666	-0.000821974	0.00423392
12.8459	12.6661	-0.000661192	0.00348946
12.8464	12.6657	-0.000712806	0.00227203
12.8468	12.6652	0.000870422	0.00261358
12.8473	12.6647	-0.000157764	0.0035855
12.8478	12.6642	-0.000853185	0.00424063
12.8482	12.6638	-0.000716677	0.00345628
12.8487	12.6633	-0.000651722	0.00221115
12.8492	12.6628	0.000958116	0.00276959
12.8497	12.6624	-5.12003e-05	0.00356199
12.8501	12.6619	-0.00086699	0.00418909
12.8506	12.6615	-0.000648386	0.0034208
12.8511	12.661	-0.00083758	0.00216428
12.8516	12.6605	0.00100647	0.00269265
12.852	12.66	-6.4202e-05	0.00359501
12.8525	12.6596	-0.000908937	0.00413879
12.853	12.6591	-0.000652792	0.00332631
12.8534	12.6586	-0.00073148	0.00219697
12.8539	12.6582	0.000868424	0.00279418
12.8544	12.6577	-0.000126892	0.00363098
12.8549	12.6572	-0.00095208	0.00407077
12.8553	12.6567	-0.000531817	0.00337908
12.8558	12.6563	-0.00051268	0.00217813
12.8563	12.6558	0.000858954	0.00275976
12.8567	12.6553	-2.12554e-05	0.00370383
12.8572	12.6548	-0.000960552	0.00416295
12.8577	12.6543	-0.000644053	0.0032978
12.8582	12.6539	-0.000539486	0.0022155
12.8586	12.6534	0.000838283	0.00282499
12.8591	12.6529	-0.000101816	0.0036881
12.8596	12.6525	-0.000974624	0.00415935
12.8601	12.652	-0.00053435	0.00323987
12.8605	12.6515	-0.000542286	0.00235095
12.861	12.6511	0.000860755	0.00280942
12.8615	12.6506	-8.18764e-05	0.00368686
12.8619	12.6501	-0.00108352	0.0040144
12.8624	12.6496	-0.000539219	0.00338826
12.8629	12.6492	-0.000426519	0.00206743
12.8634	12.6487	0.000749251	0.00264987
12.8638	12.6482	-8.67453e-05	0.003836
12.8643	12.6477	-0.00113981	0.00417803
12.8648	12.6473	-0.000428517	0.0033087
12.8652	12.6468	-0.000524148	0.00231997
12.8657	12.6463	0.000671294	0.00283728
12.8662	12.6458	-3.89298e-05	0.00387321
12.8667	12.6453	-0.00117202	0.00403652
12.8671	12.6449	-0.000421383	0.00325748
12.8676	12.6444	-0.00048607	0.00209094
12.8681	12.6439	0.000667959	0.0028594
12.8686	12.6434	-1.25876e-05	0.00387042
12.869	12.643	-0.00124051	0.00390246
12.8695	12.6425	-0.000519547	0.00325174
12.87	12.6421	-0.00041218	0.00211602
12.8704	12.6416	0.00059867	0.00281581
12.8709	12.6411	-4.17299e-05	0.00389984
12.8714	12.6406	-0.00136168	0.00387632
12.8719	12.6402	-0.000505742	0.00315661
12.8723	12.6397	-0.000342624	0.0022323
12.8728	12.6393	0.000494639	0.00281785
12.8733	12.6388	7.23068e-05	0.00398235
12.8737	12.6383	-0.00129112	0.00393049
12.8742	12.6379	-0.000435455	0.00317234
12.8747	12.6374	-0.000269001	0.00224057
12.8752	12.6369	0.00049084	0.0029198
12.8756	12.6364	0.00010985	0.0039241
12.8761	12.636	-0.00145911	0.00386247
12.8766	12.6355	-0.000452594	0.00304902
12.8771	12.635	-0.000196912	0.00214764
12.8775	12.6345	0.000548322	0.00297945
12.878	12.634	4.66959e-05	0.00409568
12.8785	12.6336	-0.00133154	0.00390123
12.8789	12.6331	-0.000386373	0.00296495
12.8794	12.6326	-0.00011842	0.00221984
12.8799	12.6322	0.000513045	0.00280008
12.8804	12.6317	0.000149996	0.00406299
12.8808	12.6312	-0.00142663	0.00394499
12.8813	12.6308	-0.000333688	0.00307393
12.8818	12.6303	-0.000151897	0.00223852
12.8822	12.6298	0.000362464	0.00293274
12.8827	12.6293	3.00915e-05	0.00415968
12.8832	12.6289	-0.00145424	0.00381469
12.8837	12.6284	-0.000343159	0.00315489
12.8841	12.6279	-9.87483e-05	0.00224164
12.8846	12.6275	0.000416415	0.00296355
12.8851	12.627	0.000156934	0.0041841
12.8856	12.6265	-0.00154727	0.00374291
12.886	12.626	-0.000418315	0.00306303
12.8865	12.6256	6.43703e-05	0.00221582
12.887	12.6251	0.000370133	0.00296822
12.8874	12.6246	6.95067e-05	0.0042453
12.8879	12.6241	-0.00149105	0.00372374
12.8884	12.6236	-0.000426787	0.00291733
12.8889	12.6232	4.72309e-05	0.0020707
12.8893	12.6227	0.00022262	0.00287546
12.8898	12.6222	9.19788e-05	0.00409273
12.8903	12.6218	-0.00156594	0.00376283
12.8907	12.6213	-0.000396842	0.00289054
12.8912	12.6208	0.000116056	0.00218747
12.8917	12.6203	0.000302913	0.00296683
12.8922	12.6199	0.000131127	0.00422007
12.8926	12.6194	-0.00153193	0.00369916
12.8931	12.6189	-0.000357231	0.00290488
12.8936	12.6185	0.000270703	0.00224041
12.8941	12.618	0.000218019	0.00301993
12.8945	12.6175	2.75589e-05	0.00424326
12.895	12.617	-0.00150892	0.00362319
12.8955	12.6166	-0.000519814	0.00271773
12.8959	12.6161	0.000267832	0.00220304
12.8964	12.6156	0.000215218	0.00297601
12.8969	12.6151	0.000127256	0.00435568
12.8974	12.6147	-0.00150946	0.00368531
12.8978	12.6142	-0.000382503	0.00289349
12.8983	12.6137	0.000356061	0.00224712
12.8988	12.6132	4.20945e-05	0.00305901
