# 1304     AichiSR QXAFS
# Start     : 8.9544
# End       : 9.0544
# Dir       : Forward
# Points    : 300
# ScanTime  : 1.01549
# Date      : 13.04.23 23:35
# Ring Cur. : 1[mA]
12.7557	12.7562	-0.00118015	0.00343899
12.7562	12.7557	-0.000405777	0.00260923
12.7566	12.7553	0.000763055	0.00239872
12.7571	12.7548	2.483e-06	0.00316005
12.7576	12.7543	-0.000136024	0.00433029
12.7581	12.7538	-0.00101837	0.00365073
12.7585	12.7534	-0.000385838	0.00253466
12.759	12.7529	0.000743651	0.00246116
12.7595	12.7525	-3.37934e-05	0.00328878
12.7599	12.752	-0.000159833	0.00419999
12.7604	12.7515	-0.0010015	0.00359952
12.7609	12.7511	-0.00041218	0.00247222
12.7614	12.7506	0.000780462	0.00250631
12.7618	12.7501	-4.78652e-05	0.00328116
12.7623	12.7496	-0.000242391	0.00426071
12.7628	12.7492	-0.00108759	0.00350519
12.7632	12.7487	-0.000485	0.00243797
12.7637	12.7483	0.000758454	0.00242707
12.7642	12.7478	-2.07916e-05	0.00337548
12.7647	12.7473	-0.000223254	0.00420278
12.7651	12.7468	-0.000940612	0.00350471
12.7656	12.7464	-0.000448456	0.0022745
12.7661	12.7459	0.000963253	0.00249885
12.7666	12.7454	6.35678e-05	0.00338327
12.767	12.7449	-0.000343159	0.00422678
12.7675	12.7445	-0.000863387	0.00343604
12.768	12.744	-0.000567095	0.00238971
12.7684	12.7435	0.000965518	0.00262619
12.7689	12.743	-1.41214e-05	0.00326076
12.7694	12.7426	-0.000391706	0.00414673
12.7699	12.7421	-0.000846248	0.00358099
12.7703	12.7416	-0.000491671	0.00233817
12.7708	12.7412	0.000901633	0.00263258
12.7713	12.7407	-2.89245e-05	0.00346283
12.7717	12.7402	-0.000422185	0.00431209
12.7722	12.7397	-0.000887197	0.00359034
12.7727	12.7393	-0.000507009	0.0023058
12.7732	12.7388	0.00109696	0.00255737
12.7736	12.7384	-8.5479e-05	0.00344898
12.7741	12.7379	-0.000556091	0.00409552
12.7746	12.7374	-0.000739951	0.00343186
12.7751	12.7369	-0.000516479	0.00226424
12.7755	12.7364	0.00102848	0.00276148
12.776	12.736	4.59646e-05	0.00343202
12.7765	12.7355	-0.000594436	0.00410797
12.7769	12.735	-0.000767025	0.00351249
12.7774	12.7345	-0.000559961	0.00221566
12.7779	12.734	0.000978323	0.00270232
12.7784	12.7336	-9.51996e-06	0.00355985
12.7788	12.7331	-0.000697468	0.004219
12.7793	12.7326	-0.000643785	0.00348135
12.7798	12.7322	-0.000536954	0.00219853
12.7802	12.7317	0.000985992	0.0026139
12.7807	12.7312	-1.74565e-05	0.00354379
12.7812	12.7307	-0.000761157	0.00423441
12.7817	12.7303	-0.00070314	0.00342826
12.7821	12.7298	-0.000695738	0.00219574
12.7826	12.7293	0.000978858	0.00275042
12.7831	12.7289	-5.55342e-05	0.0035315
12.7836	12.7284	-0.000797237	0.00408462
12.784	12.7279	-0.000493472	0.00330124
12.7845	12.7275	-0.000606974	0.00222328
12.785	12.727	0.000958384	0.00279557
12.7854	12.7265	7.79071e-05	0.00358132
12.7859	12.726	-0.000754754	0.00404946
12.7864	12.7256	-0.00054769	0.00345693
12.7869	12.7251	-0.000496272	0.00214871
12.7873	12.7246	0.000996729	0.00282188
12.7878	12.7241	-9.25246e-06	0.00363565
12.7883	12.7236	-0.000961087	0.00411796
12.7887	12.7232	-0.000551293	0.00327944
12.7892	12.7227	-0.00063098	0.00220771
12.7897	12.7223	0.000868157	0.00264348
12.7902	12.7218	-7.14073e-05	0.0037661
12.7906	12.7213	-0.000847781	0.00411404
12.7911	12.7209	-0.000603639	0.00311457
12.7916	12.7204	-0.00044719	0.00218935
12.7921	12.7199	0.000912905	0.00277034
12.7925	12.7194	-6.93385e-05	0.00374415
12.793	12.719	-0.000852918	0.00401988
12.7935	12.7185	-0.000503477	0.00337704
12.7939	12.7181	-0.000601106	0.00224384
12.7944	12.7176	0.000880427	0.00276271
12.7949	12.7171	0.000112186	0.00377421
12.7954	12.7166	-0.000927343	0.00407281
12.7958	12.7162	-0.000515213	0.00329453
12.7963	12.7157	-0.000470465	0.00220771
12.7968	12.7152	0.000708641	0.00284212
12.7972	12.7147	1.88911e-05	0.00376299
12.7977	12.7142	-0.00111113	0.00404291
12.7982	12.7138	-0.000349294	0.00319569
12.7987	12.7133	-0.000341357	0.00207914
12.7991	12.7128	0.000803469	0.00284523
12.7996	12.7124	0.000102983	0.00381109
12.8001	12.7119	-0.00107839	0.00404742
12.8006	12.7114	-0.000450793	0.00308811
12.801	12.7109	-0.000328356	0.0021828
12.8015	12.7105	0.000670296	0.00274247
12.802	12.71	2.52226e-05	0.00381002
12.8024	12.7095	-0.00123564	0.0038986
12.8029	12.7091	-0.00037717	0.00311194
12.8034	12.7086	-0.000255197	0.00217362
12.8039	12.7081	0.000608676	0.00277737
12.8043	12.7077	0.000188876	0.00388582
12.8048	12.7072	-0.00130113	0.00394359
12.8053	12.7067	-0.000375369	0.00315645
12.8057	12.7062	-0.0001667	0.00226081
12.8062	12.7057	0.000551122	0.0027246
12.8067	12.7053	7.38407e-05	0.00406143
12.8072	12.7048	-0.00120676	0.0039109
12.8076	12.7043	-0.000376903	0.00305885
12.8081	12.7038	-0.000114621	0.00223917
12.8086	12.7033	0.0005808	0.00282359
12.8091	12.7029	0.000141596	0.00408306
12.8095	12.7024	-0.00129266	0.003836
12.81	12.702	-0.000315015	0.00310679
12.8105	12.7015	-6.75372e-05	0.00213502
12.8109	12.701	0.000537586	0.00280958
12.8114	12.7005	0.000171006	0.00391868
12.8119	12.7	-0.00126551	0.00391073
12.8124	12.6996	-0.000426448	0.00302132
12.8128	12.6991	2.52226e-05	0.00226515
12.8133	12.6987	0.000493373	0.00289677
12.8138	12.6982	0.000309048	0.00412666
12.8142	12.6977	-0.00147771	0.00391852
12.8147	12.6973	-0.000189243	0.00299764
12.8152	12.6968	0.000115717	0.00221394
12.8157	12.6963	0.000384936	0.00295126
12.8161	12.6958	0.000112453	0.00407093
12.8166	12.6954	-0.00140363	0.00379429
12.8171	12.6949	-0.000292276	0.00299609
12.8176	12.6944	0.000117786	0.00221082
12.818	12.6939	0.000336924	0.00285678
12.8185	12.6935	0.000365264	0.00414738
12.819	12.693	-0.00137955	0.00377545
12.8194	12.6925	-0.000290742	0.00289628
12.8199	12.6921	0.000276303	0.00216428
12.8204	12.6916	0.000440688	0.00289022
12.8209	12.6911	0.000163533	0.00420885
12.8213	12.6906	-0.00139669	0.00382076
12.8218	12.6902	-0.000339824	0.00298363
12.8223	12.6897	0.000151262	0.00222811
12.8227	12.6893	0.000318519	0.0029497
12.8232	12.6888	0.000323851	0.0042249
12.8237	12.6883	-0.0014407	0.00374291
12.8242	12.6879	-0.000277936	0.00300715
12.8246	12.6874	0.000354527	0.00214887
12.8251	12.6869	0.000312383	0.0029416
12.8256	12.6864	0.000189144	0.00417492
12.8261	12.6859	-0.00140489	0.00370727
12.8265	12.6855	-0.00033549	0.00285039
12.827	12.685	0.000292908	0.00218951
12.8275	12.6845	0.000182206	0.00305697
12.8279	12.684	0.000201682	0.00423162
12.8284	12.6835	-0.00146651	0.00359189
12.8289	12.6831	-0.000237059	0.00277721
12.8294	12.6826	0.00032312	0.00223106
12.8298	12.6822	0.000274038	0.00303206
12.8303	12.6817	0.000300844	0.00426989
12.8308	12.6812	-0.00135961	0.00375939
12.8312	12.6807	-0.000340822	0.00276148
12.8317	12.6802	0.000388271	0.00223214
12.8322	12.6798	0.000200148	0.00314088
12.8327	12.6793	7.20393e-05	0.0041877
12.8331	12.6788	-0.00141563	0.00365573
12.8336	12.6784	-0.000295343	0.00279229
12.8341	12.6779	0.00029091	0.00236963
12.8346	12.6774	0.000206283	0.00314227
12.835	12.6769	0.000116787	0.00434945
12.8355	12.6765	-0.00127525	0.00365057
12.836	12.676	-0.000336489	0.00259145
12.8364	12.6755	0.000470098	0.00247018
12.8369	12.675	0.000177605	0.00308532
12.8374	12.6745	9.25138e-05	0.00423596
12.8379	12.6741	-0.00118502	0.00363377
12.8383	12.6736	-0.000247528	0.00264643
12.8388	12.6731	0.000569796	0.00234112
12.8393	12.6727	0.000160001	0.003158
12.8397	12.6722	6.23015e-05	0.00424391
12.8402	12.6717	-0.00116282	0.00358378
12.8407	12.6713	-0.000298678	0.00264643
12.8412	12.6708	0.000626546	0.00238364
12.8416	12.6703	5.33662e-05	0.00316563
12.8421	12.6698	-7.71866e-06	0.00425277
12.8426	12.6694	-0.00115741	0.00366023
12.8431	12.6689	-0.000380773	0.00260128
12.8435	12.6685	0.000609407	0.00232399
12.844	12.668	3.18928e-05	0.00326634
12.8445	12.6675	-9.82133e-05	0.00431472
12.8449	12.667	-0.00113874	0.0035796
12.8454	12.6666	-0.000436186	0.00258137
12.8459	12.6661	0.000722178	0.00253262
12.8464	12.6656	-7.98616e-06	0.00325388
12.8468	12.6651	-0.00012229	0.00435831
12.8473	12.6647	-0.00103391	0.00356822
12.8478	12.6642	-0.000376903	0.00257621
12.8482	12.6637	0.000604074	0.00250164
12.8487	12.6633	8.68424e-05	0.00319725
12.8492	12.6628	-0.000220187	0.0043334
12.8497	12.6623	-0.000927343	0.00369342
12.8501	12.6619	-0.000370767	0.00245321
12.8506	12.6614	0.000892698	0.00252
12.8511	12.6609	-2.58568e-05	0.00333828
12.8516	12.6604	-0.000189243	0.00437265
12.852	12.66	-0.0010137	0.00349413
12.8525	12.6595	-0.000500338	0.00241805
12.853	12.659	0.000927975	0.0025644
12.8534	12.6586	-1.05188e-05	0.00323724
12.8539	12.6581	-0.000413179	0.00425465
12.8544	12.6576	-0.000831445	0.00345923
12.8549	12.6572	-0.000443588	0.00235406
12.8553	12.6567	0.000892163	0.00248468
12.8558	12.6562	-4.9399e-05	0.00333345
12.8563	12.6557	-0.000374834	0.00413632
12.8567	12.6552	-0.00082151	0.00351298
12.8572	12.6548	-0.000522614	0.0024442
12.8577	12.6543	0.00093131	0.00252172
12.8582	12.6538	-1.59227e-05	0.00335524
12.8586	12.6533	-0.000534617	0.00434757
12.8591	12.6529	-0.000833977	0.0035578
12.8596	12.6524	-0.000534885	0.00233833
12.8601	12.6519	0.00102514	0.0026366
12.8605	12.6515	-6.19369e-05	0.00352232
12.861	12.651	-0.000490672	0.00420032
12.8615	12.6505	-0.000686464	0.00344447
12.8619	12.65	-0.000561691	0.00221222
12.8624	12.6496	0.00102254	0.00256359
12.8629	12.6491	-3.0262e-05	0.00348946
12.8634	12.6486	-0.000581434	0.00424047
12.8638	12.6482	-0.000716677	0.0034879
12.8643	12.6477	-0.000615445	0.0023561
12.8648	12.6472	0.00100873	0.00265529
12.8652	12.6467	-6.60034e-05	0.00347684
12.8657	12.6462	-0.000645051	0.00427317
12.8662	12.6458	-0.000745551	0.00348914
12.8667	12.6453	-0.000578901	0.00224958
12.8671	12.6448	0.00103461	0.00269453
12.8676	12.6443	-4.01961e-05	0.00349987
12.8681	12.6439	-0.00071821	0.00413476
12.8686	12.6434	-0.000593437	0.00350626
12.869	12.6429	-0.000537417	0.00216691
12.8695	12.6425	0.00108876	0.00268085
12.87	12.642	-9.18818e-05	0.00357756
12.8704	12.6415	-0.000733548	0.00404602
12.8709	12.6411	-0.000653523	0.00350798
12.8714	12.6406	-0.000616979	0.00216551
12.8719	12.6401	0.001019	0.00275353
12.8723	12.6397	-2.58568e-05	0.00354658
12.8728	12.6392	-0.00080817	0.00406143
12.8733	12.6387	-0.000659926	0.0034879
12.8737	12.6383	-0.000602105	0.00213175
12.8742	12.6378	0.00092464	0.00277673
12.8747	12.6373	-7.52062e-05	0.00373497
12.8752	12.6368	-0.000853988	0.00408961
12.8756	12.6364	-0.000522079	0.00336614
12.8761	12.6359	-0.000604441	0.00211027
12.8766	12.6354	0.000972723	0.00268347
12.8771	12.6349	-9.02768e-05	0.00372342
12.8775	12.6345	-0.00103571	0.00412043
12.878	12.634	-0.000427786	0.00347824
12.8785	12.6335	-0.000463598	0.00229752
12.8789	12.633	0.000859953	0.00274419
12.8794	12.6326	-1.15888e-05	0.00371644
12.8799	12.6321	-0.000818175	0.00407667
12.8804	12.6317	-0.000471	0.0032206
12.8808	12.6312	-0.000506741	0.0021333
12.8813	12.6307	0.000920574	0.00275928
12.8818	12.6302	4.54296e-05	0.00368998
12.8822	12.6298	-0.00104618	0.00421819
12.8827	12.6293	-0.000441055	0.00327633
12.8832	12.6288	-0.000373567	0.00210684
12.8837	12.6284	0.000893429	0.00279294
12.8841	12.6279	2.68276e-05	0.00375537
12.8846	12.6274	-0.00113467	0.00410051
12.8851	12.6269	-0.000403976	0.00326511
12.8856	12.6265	-0.000319349	0.00219697
12.886	12.626	0.000864822	0.00277705
12.8865	12.6255	0.000131858	0.00385157
12.887	12.625	-0.00103671	0.00398514
12.8874	12.6245	-0.000363366	0.00328239
12.8879	12.6241	-0.000354627	0.00216428
12.8884	12.6236	0.000736713	0.00284834
12.8889	12.6231	5.82351e-05	0.00389328
12.8893	12.6226	-0.00114261	0.00400415
12.8898	12.6222	-0.000403512	0.00311597
12.8903	12.6217	-0.000294344	0.00219091
12.8907	12.6212	0.00065856	0.00290906
12.8912	12.6208	0.000227756	0.00400415
12.8917	12.6203	-0.00107099	0.00390155
12.8922	12.6198	-0.000345959	0.00312515
12.8926	12.6193	-4.04636e-05	0.00217378
12.8931	12.6189	0.000550124	0.00299125
12.8936	12.6184	0.000145127	0.00404479
12.8941	12.6179	-0.00117455	0.00398686
12.8945	12.6175	-0.000402977	0.00311023
12.895	12.617	-8.56754e-05	0.00205997
12.8955	12.6165	0.000554457	0.00278483
12.8959	12.616	0.000115985	0.00392475
12.8964	12.6156	-0.00126405	0.00389082
12.8969	12.6151	-0.000285142	0.00304607
12.8974	12.6146	-9.87483e-05	0.00205841
12.8978	12.6141	0.000545522	0.0028499
12.8983	12.6137	6.35311e-06	0.00402144
12.8988	12.6132	-0.00146218	0.00388738
