# 1304     AichiSR QXAFS
# Start     : 8.9544
# End       : 9.0544
# Dir       : Forward
# Points    : 300
# ScanTime  : 1.01549
# Date      : 13.04.24 00:17
# Ring Cur. : 0.9[mA]
12.7557	12.7563	0.000484705	0.00287997
12.7562	12.7558	0.000170471	0.00413755
12.7566	12.7553	-0.00127812	0.00371489
12.7571	12.7548	-0.000344425	0.00303673
12.7576	12.7544	1.48419e-06	0.00223418
12.7581	12.7539	0.000392605	0.00286424
12.7585	12.7534	0.000207549	0.00409896
12.759	12.753	-0.00145631	0.0037843
12.7595	12.7525	-0.000289208	0.00287809
12.7599	12.752	0.000197544	0.00219091
12.7604	12.7516	0.000425083	0.00291889
12.7609	12.7511	0.00023489	0.00414067
12.7614	12.7506	-0.00151019	0.00368965
12.7618	12.7502	-0.000338825	0.00289521
12.7623	12.7497	0.000270436	0.00225646
12.7628	12.7492	0.000380335	0.00309573
12.7632	12.7488	0.000268902	0.00427177
12.7637	12.7483	-0.00148492	0.00375553
12.7642	12.7478	-0.000310146	0.00296667
12.7647	12.7474	0.000192211	0.00243953
12.7651	12.7469	0.000339724	0.00301976
12.7656	12.7464	0.000251227	0.0041936
12.7661	12.746	-0.00142763	0.00379708
12.7666	12.7455	-0.000299677	0.00280851
12.767	12.745	0.000343327	0.00221705
12.7675	12.7445	0.00035146	0.00298084
12.768	12.744	0.000246162	0.00427317
12.7684	12.7436	-0.00137522	0.00376873
12.7689	12.7431	-0.00040831	0.0029606
12.7694	12.7426	0.000328988	0.00226253
12.7699	12.7422	0.000195279	0.00302132
12.7703	12.7417	0.000204946	0.00421712
12.7708	12.7412	-0.0014289	0.00364638
12.7713	12.7407	-0.000366433	0.0027319
12.7717	12.7403	0.000284704	0.00232571
12.7722	12.7398	9.29777e-05	0.00301772
12.7727	12.7393	0.000173538	0.00425137
12.7732	12.7389	-0.00130266	0.00360091
12.7736	12.7384	-0.000422917	0.00269019
12.7741	12.7379	0.000412812	0.00235062
12.7746	12.7375	0.000184542	0.00302132
12.7751	12.737	0.00024536	0.00423408
12.7755	12.7365	-0.00133434	0.00365245
12.776	12.736	-0.000328088	0.00266028
12.7765	12.7355	0.000428953	0.00219993
12.7769	12.7351	3.80281e-05	0.00316284
12.7774	12.7346	0.000121121	0.00418786
12.7779	12.7341	-0.00134174	0.00360542
12.7784	12.7336	-0.000333688	0.00263382
12.7788	12.7331	0.000451425	0.00226515
12.7793	12.7327	8.43098e-05	0.0031004
12.7798	12.7322	9.93804e-05	0.00423687
12.7802	12.7318	-0.0013208	0.00369621
12.7807	12.7313	-0.000321418	0.00273018
12.7812	12.7308	0.000522979	0.00239282
12.7817	12.7303	-3.65223e-06	0.00312064
12.7821	12.7298	0.000127791	0.00419205
12.7826	12.7294	-0.00118962	0.0036903
12.7831	12.7289	-0.000510344	0.00265438
12.7836	12.7285	0.000619876	0.00228851
12.784	12.728	5.49e-05	0.00316858
12.7845	12.7275	2.42238e-05	0.00428095
12.785	12.727	-0.00127372	0.00361165
12.7854	12.7266	-0.000343159	0.00267601
12.7859	12.7261	0.000617344	0.00242068
12.7864	12.7256	-1.6654e-05	0.00315129
12.7869	12.7251	-5.21991e-05	0.00414394
12.7873	12.7247	-0.00117916	0.00367392
12.7878	12.7242	-0.000311948	0.00267773
12.7883	12.7237	0.000579266	0.00226859
12.7887	12.7232	6.99705e-05	0.00314555
12.7892	12.7228	-8.67453e-05	0.00414706
12.7897	12.7223	-0.00114588	0.00365712
12.7902	12.7219	-0.000488603	0.00248017
12.7906	12.7214	0.000801936	0.00240184
12.7911	12.7209	-2.25929e-05	0.00316316
12.7916	12.7204	-6.44695e-05	0.0042744
12.7921	12.72	-0.00111934	0.00359329
12.7925	12.7195	-0.000448991	0.00267446
12.793	12.719	0.000708106	0.00234456
12.7935	12.7186	-6.45235e-06	0.00319537
12.7939	12.7181	-0.000135025	0.0041455
12.7944	12.7176	-0.00105285	0.00363844
12.7949	12.7172	-0.000469198	0.00238036
12.7954	12.7167	0.000699902	0.00249574
12.7958	12.7162	3.16253e-05	0.0034172
12.7963	12.7157	-0.00016777	0.00426211
12.7968	12.7153	-0.000999896	0.00362786
12.7972	12.7148	-0.000436721	0.00252623
12.7977	12.7143	0.000716042	0.00250664
12.7982	12.7138	-6.18485e-06	0.00340555
12.7987	12.7133	-0.000233456	0.00419033
12.7991	12.7129	-0.00104238	0.00356575
12.7996	12.7124	-0.00051161	0.00242986
12.8001	12.712	0.000852819	0.00258866
12.8006	12.7115	4.00969e-05	0.00326371
12.801	12.711	-0.000320152	0.00427628
12.8015	12.7105	-0.0010035	0.00361353
12.802	12.7101	-0.00054102	0.00239953
12.8024	12.7096	0.000875291	0.00249123
12.8029	12.7091	6.61716e-05	0.00338778
12.8034	12.7087	-0.00031168	0.00420826
12.8039	12.7082	-0.000855986	0.00353225
12.8043	12.7077	-0.0004822	0.00250443
12.8048	12.7072	0.000903702	0.00250664
12.8053	12.7068	-0.000133223	0.0032869
12.8057	12.7063	-0.000273602	0.00436953
12.8062	12.7058	-0.000848584	0.00357026
12.8067	12.7053	-0.000501408	0.00237135
12.8072	12.7048	0.00101233	0.00264004
12.8076	12.7043	-4.24612e-05	0.00348087
12.8081	12.7039	-0.000478134	0.00424154
12.8086	12.7034	-0.000920673	0.0035338
12.8091	12.7029	-0.00056376	0.00228974
12.8095	12.7025	0.00105248	0.00258711
12.81	12.702	-0.000113819	0.00331074
12.8105	12.7015	-0.000519012	0.00421884
12.8109	12.7011	-0.000874391	0.003517
12.8114	12.7006	-0.000532085	0.00225007
12.8119	12.7001	0.000938444	0.00266667
12.8124	12.6996	5.29023e-05	0.00342391
12.8128	12.6992	-0.000574496	0.00418459
12.8133	12.6987	-0.000756288	0.00342998
12.8138	12.6983	-0.00051828	0.0022032
12.8142	12.6978	0.000935644	0.00263103
12.8147	12.6973	1.0687e-05	0.00346734
12.8152	12.6968	-0.000543356	0.00417664
12.8157	12.6964	-0.00083758	0.00343513
12.8161	12.6959	-0.000568361	0.00230424
12.8166	12.6954	0.000997264	0.00261873
12.8171	12.6949	-8.82792e-05	0.00345086
12.8176	12.6945	-0.000659926	0.00416902
12.818	12.694	-0.00070594	0.00346079
12.8185	12.6935	-0.000660193	0.00220041
12.819	12.693	0.00101667	0.00260316
12.8194	12.6926	-7.98076e-05	0.00351217
12.8199	12.6921	-0.000716142	0.00417959
12.8204	12.6917	-0.000647388	0.00342128
12.8209	12.6912	-0.000642786	0.0022468
12.8213	12.6907	0.000959918	0.00276476
12.8218	12.6902	-0.000149631	0.00351249
12.8223	12.6898	-0.000703604	0.00416402
12.8227	12.6893	-0.000529017	0.00346578
12.8232	12.6888	-0.000648921	0.00218189
12.8237	12.6884	0.000917774	0.00261841
12.8242	12.6879	-0.000171105	0.00350036
12.8246	12.6874	-0.000746818	0.00427333
12.8251	12.687	-0.000562761	0.00339433
12.8256	12.6865	-0.000561227	0.00214527
12.8261	12.686	0.00103588	0.00280803
12.8265	12.6855	-0.000109217	0.00367892
12.827	12.685	-0.000727681	0.00414566
12.8275	12.6846	-0.000664723	0.0034834
12.8279	12.6841	-0.000567095	0.00217378
12.8284	12.6836	0.00092464	0.00277705
12.8289	12.6831	-4.78652e-05	0.00370055
12.8294	12.6827	-0.000822509	0.00408323
12.8298	12.6822	-0.000576833	0.00337393
12.8303	12.6817	-0.00064045	0.00210667
12.8308	12.6813	0.000894499	0.00274435
12.8312	12.6808	-0.000115085	0.00362942
12.8317	12.6803	-0.000846783	0.00406299
12.8322	12.6798	-0.0004738	0.00330263
12.8327	12.6794	-0.000600107	0.00220041
12.8331	12.6789	0.0010192	0.00276894
12.8336	12.6784	-5.63367e-05	0.00372595
12.8341	12.678	-0.000950885	0.00406347
12.8346	12.6775	-0.0005771	0.00340023
12.835	12.677	-0.000418048	0.0021442
12.8355	12.6765	0.000902168	0.00280384
12.836	12.6761	4.28431e-06	0.00361058
12.8364	12.6756	-0.00109046	0.00414427
12.8369	12.6751	-0.000444925	0.00332115
12.8374	12.6746	-0.00053715	0.002161
12.8379	12.6741	0.000911371	0.00284088
12.8383	12.6737	-5.80668e-05	0.00384486
12.8388	12.6732	-0.000996097	0.00394375
12.8393	12.6727	-0.000452059	0.00331321
12.8397	12.6723	-0.000336489	0.00208455
12.8402	12.6718	0.000791199	0.0028331
12.8407	12.6713	8.12422e-05	0.00371628
12.8412	12.6709	-0.0011188	0.00399964
12.8416	12.6704	-0.000415248	0.00324347
12.8421	12.6699	-0.000368163	0.00218468
12.8426	12.6695	0.000868692	0.00280319
12.8431	12.669	-3.61297e-05	0.00381061
12.8435	12.6685	-0.0011078	0.00401628
12.844	12.6681	-0.000429587	0.00323445
12.8445	12.6676	-0.00045106	0.00199613
12.8449	12.6671	0.000807072	0.00262947
12.8454	12.6666	-8.56754e-05	0.00375504
12.8459	12.6662	-0.00109219	0.00404897
12.8464	12.6657	-0.00038837	0.00328191
12.8468	12.6652	-0.000235257	0.00219263
12.8473	12.6647	0.00065749	0.00278328
12.8478	12.6643	-3.27946e-05	0.00380937
12.8482	12.6638	-0.00116408	0.00398203
12.8487	12.6633	-0.000347493	0.00320718
12.8492	12.6628	-0.000304814	0.00215478
12.8497	12.6624	0.000637551	0.00293569
12.8501	12.6619	1.93549e-05	0.00385624
12.8506	12.6615	-0.00114081	0.00394654
12.8511	12.661	-0.000344158	0.0032424
12.8516	12.6605	-0.00024833	0.00218312
12.852	12.66	0.000639084	0.00280459
12.8525	12.6596	8.94462e-05	0.00384411
12.853	12.6591	-0.00120883	0.00393876
12.8534	12.6586	-0.000490672	0.00311162
12.8539	12.6582	-9.66795e-05	0.00206013
12.8544	12.6577	0.000629882	0.0028594
12.8549	12.6572	0.000133927	0.00406954
12.8553	12.6567	-0.00126098	0.00396973
12.8558	12.6563	-0.000391706	0.00302911
12.8563	12.6558	-0.000182573	0.00216288
12.8567	12.6553	0.000574664	0.00289161
12.8572	12.6548	0.000152332	0.00407684
12.8577	12.6543	-0.00127605	0.00379568
12.8582	12.6539	-0.000242659	0.00304279
12.8586	12.6534	-6.75372e-05	0.00229941
12.8591	12.6529	0.0005836	0.00290439
12.8596	12.6525	0.000146197	0.00395588
12.8601	12.652	-0.00127832	0.00386419
12.8605	12.6515	-0.00037717	0.00307221
12.861	12.6511	-3.96611e-05	0.0022804
12.8615	12.6506	0.000488504	0.00294798
12.8619	12.6501	0.000206016	0.00403652
12.8624	12.6496	-0.00145064	0.00385034
12.8629	12.6492	-0.000322684	0.00301182
12.8634	12.6487	-9.98377e-06	0.00216379
12.8638	12.6482	0.000479836	0.00283777
12.8643	12.6477	0.000105248	0.00407028
12.8648	12.6473	-0.00146751	0.00370555
12.8652	12.6468	-0.000292276	0.00307672
12.8657	12.6463	1.27558e-05	0.00219805
12.8662	12.6458	0.00042255	0.00287186
12.8667	12.6453	0.000178407	0.00403029
12.8671	12.6449	-0.00148825	0.00379864
12.8676	12.6444	-0.00034949	0.00297585
12.8681	12.6439	6.95067e-05	0.00216084
12.8686	12.6435	0.00046423	0.00291529
12.869	12.643	0.000276303	0.00412961
12.8695	12.6425	-0.00135934	0.00371521
12.87	12.6421	-0.000297145	0.00310147
12.8704	12.6416	0.000111383	0.00213814
12.8709	12.6411	0.000314185	0.00287916
12.8714	12.6407	0.000230022	0.00413632
12.8719	12.6402	-0.0015294	0.00373529
12.8723	12.6397	-0.000429854	0.00303689
12.8728	12.6393	0.00022542	0.00219075
12.8733	12.6388	0.00031925	0.00302395
12.8737	12.6383	0.000295975	0.00419516
12.8742	12.6379	-0.00148212	0.00374431
12.8747	12.6374	-0.000507276	0.00289537
12.8752	12.6369	0.000174537	0.00229613
12.8756	12.6364	0.000253564	0.00301993
12.8761	12.636	0.000217216	0.00415672
12.8766	12.6355	-0.0014307	0.00369309
12.8771	12.635	-0.00020278	0.00286891
12.8775	12.6345	0.000159466	0.00218124
12.878	12.634	0.000207282	0.00299502
12.8785	12.6336	0.000221086	0.00419844
12.8789	12.6331	-0.00128932	0.00370055
12.8794	12.6326	-0.00030608	0.00276304
12.8799	12.6322	0.000296243	0.00224868
12.8804	12.6317	0.00024643	0.00294938
12.8808	12.6312	0.00014593	0.00424326
12.8813	12.6308	-0.00130566	0.00371006
12.8818	12.6303	-0.000393507	0.00283605
12.8822	12.6298	0.000370133	0.00226204
12.8827	12.6294	0.000120854	0.00316751
12.8832	12.6289	0.000206016	0.00427735
12.8837	12.6284	-0.00137702	0.00366834
12.8841	12.628	-0.000455662	0.00279778
12.8846	12.6275	0.000358398	0.00232325
12.8851	12.627	0.000154062	0.0030632
12.8856	12.6265	0.000100914	0.00426178
12.886	12.626	-0.00136095	0.00364311
12.8865	12.6256	-0.000492206	0.00264815
12.887	12.6251	0.000379603	0.0021828
12.8874	12.6246	7.23068e-05	0.00308343
12.8879	12.6241	0.000137191	0.0042213
12.8884	12.6236	-0.00146651	0.00370941
12.8889	12.6232	-0.00030608	0.00278172
12.8893	12.6227	0.000484437	0.00224958
12.8898	12.6222	0.000136727	0.00296699
12.8903	12.6218	3.80281e-05	0.0042358
12.8907	12.6213	-0.0012213	0.00355764
12.8912	12.6208	-0.000369965	0.00270371
12.8917	12.6203	0.000474967	0.0022876
12.8922	12.6199	7.5107e-05	0.00313358
12.8926	12.6194	0.000149729	0.00431799
12.8931	12.6189	-0.00120163	0.00367785
12.8936	12.6185	-0.000467665	0.00263349
12.8941	12.618	0.00045756	0.00239626
12.8945	12.6175	0.000126258	0.00319349
12.895	12.617	-2.94595e-05	0.00429775
12.8955	12.6166	-0.00127985	0.00362426
12.8959	12.6161	-0.000368698	0.00264627
12.8964	12.6156	0.00064242	0.0023684
12.8969	12.6151	-1.6654e-05	0.00311285
12.8974	12.6147	-2.51255e-05	0.00440051
12.8978	12.6142	-0.00117042	0.00362631
12.8983	12.6137	-0.000322417	0.00250524
12.8988	12.6133	0.000749519	0.00239921
