# 1304     AichiSR QXAFS
# Start     : 8.9544
# End       : 9.0544
# Dir       : Backward
# Points    : 300
# ScanTime  : 1.01549
# Date      : 13.04.24 00:34
# Ring Cur. : 0.9[mA]
12.7557	12.6124	-8.77442e-05	0.00338343
12.7562	12.6128	-0.00063485	0.0041455
12.7566	12.6133	-0.000807902	0.00339261
12.7571	12.6138	-0.000693402	0.00222312
12.7576	12.6142	0.00101053	0.00257293
12.7581	12.6147	-0.000158567	0.00345505
12.7585	12.6152	-0.000677261	0.00417991
12.759	12.6157	-0.000801571	0.00333098
12.7595	12.6161	-0.000607972	0.0023008
12.7599	12.6166	0.000894231	0.0026838
12.7604	12.6171	-9.02768e-05	0.00348012
12.7609	12.6176	-0.000682398	0.00416435
12.7614	12.618	-0.000791031	0.00337393
12.7618	12.6185	-0.000697468	0.00217411
12.7623	12.619	0.000972188	0.0027341
12.7628	12.6194	-0.000187977	0.00368686
12.7632	12.6199	-0.000873125	0.00414985
12.7637	12.6204	-0.000755022	0.00333205
12.7642	12.6209	-0.000587034	0.00213347
12.7647	12.6213	0.00097679	0.00259022
12.7651	12.6218	-0.000111554	0.00365368
12.7656	12.6223	-0.000845516	0.00394982
12.7661	12.6227	-0.000656056	0.0032978
12.7666	12.6232	-0.000792368	0.00211585
12.767	12.6237	0.000870957	0.00269641
12.7675	12.6241	-0.00014223	0.00358534
12.768	12.6246	-0.000961551	0.00394949
12.7684	12.6251	-0.000598306	0.0032497
12.7689	12.6256	-0.000498073	0.00208971
12.7694	12.6261	0.000806269	0.00258899
12.7699	12.6265	-4.38354e-06	0.00363532
12.7703	12.627	-0.00102371	0.00394048
12.7708	12.6275	-0.000591368	0.00336335
12.7713	12.628	-0.00060544	0.00214887
12.7717	12.6284	0.000895765	0.00273829
12.7722	12.6289	-5.03978e-05	0.00380052
12.7727	12.6294	-0.000962817	0.00394343
12.7732	12.6298	-0.000590369	0.00323445
12.7736	12.6303	-0.000451257	0.0021456
12.7741	12.6308	0.000814206	0.00271215
12.7746	12.6313	-0.000120222	0.00370989
12.7751	12.6317	-0.00111754	0.00384706
12.7755	12.6322	-0.000562761	0.00324036
12.776	12.6327	-0.000491207	0.00208643
12.7765	12.6331	0.000778928	0.00285162
12.7769	12.6336	2.34925e-05	0.00376127
12.7774	12.6341	-0.00113387	0.00398981
12.7779	12.6345	-0.000488139	0.00309884
12.7784	12.635	-0.000462528	0.00216911
12.7788	12.6355	0.000598403	0.00272927
12.7793	12.636	-8.80117e-05	0.003777
12.7798	12.6364	-0.00127479	0.0039445
12.7802	12.6369	-0.000454859	0.0031172
12.7807	12.6374	-0.000282805	0.00206619
12.7812	12.6379	0.000639084	0.00282048
12.7817	12.6383	3.59593e-05	0.00383616
12.7821	12.6388	-0.00126045	0.00395154
12.7826	12.6393	-0.000417049	0.00312703
12.7831	12.6397	-0.00027387	0.00217206
12.7836	12.6402	0.000603539	0.0028812
12.784	12.6407	2.36888e-05	0.00386821
12.7845	12.6411	-0.00122644	0.00390713
12.785	12.6416	-0.000382235	0.00311457
12.7854	12.6421	-0.000266201	0.0021143
12.7859	12.6425	0.00062248	0.00287792
12.7864	12.643	-3.58622e-05	0.00383321
12.7869	12.6435	-0.001308	0.00391229
12.7873	12.6439	-0.000397841	0.00306008
12.7878	12.6444	-0.000253395	0.00222049
12.7883	12.6449	0.000445557	0.00280803
12.7887	12.6454	5.67013e-05	0.00393581
12.7892	12.6458	-0.00131873	0.00379445
12.7897	12.6463	-0.000419118	0.00304075
12.7902	12.6468	-0.000195913	0.00200719
12.7906	12.6473	0.000468564	0.00272256
12.7911	12.6478	4.16307e-05	0.00385313
12.7916	12.6482	-0.00138469	0.00385001
12.7921	12.6487	-0.000407311	0.00289398
12.7925	12.6492	-0.000183108	0.00213437
12.793	12.6496	0.000460093	0.00296232
12.7935	12.6501	9.0445e-05	0.00397285
12.7939	12.6506	-0.00152253	0.00377668
12.7944	12.6511	-0.000375369	0.00295421
12.7949	12.6516	-1.41214e-05	0.00215322
12.7954	12.652	0.00034866	0.00275026
12.7958	12.6525	0.000145127	0.00403668
12.7963	12.6529	-0.00144404	0.00371301
12.7968	12.6534	-0.000456393	0.00301354
12.7972	12.6539	-1.85092e-06	0.0021996
12.7977	12.6544	0.000327918	0.00285661
12.7982	12.6548	0.00028704	0.004077
12.7987	12.6553	-0.00156287	0.0037121
12.7991	12.6558	-0.000330888	0.00290734
12.7996	12.6563	-3.83948e-05	0.00219386
12.8001	12.6568	0.000336924	0.00285441
12.8006	12.6572	0.000327454	0.00413509
12.801	12.6577	-0.00148592	0.00359828
12.8015	12.6582	-0.000469662	0.00299346
12.802	12.6586	0.000203947	0.00217657
12.8024	12.6591	0.000256096	0.00287449
12.8029	12.6596	0.000212151	0.0041659
12.8034	12.66	-0.00140949	0.00366458
12.8039	12.6605	-0.000418315	0.00280164
12.8043	12.661	0.000280905	0.00216272
12.8048	12.6615	0.000243826	0.00293209
12.8053	12.6619	0.000209547	0.00425432
12.8057	12.6624	-0.00138008	0.00363237
12.8062	12.6629	-0.00048607	0.0028594
12.8067	12.6633	0.000272968	0.00216895
12.8072	12.6638	0.000211616	0.00301821
12.8076	12.6643	0.000168669	0.00430291
12.8081	12.6647	-0.00134914	0.00353708
12.8086	12.6652	-0.000365631	0.00279278
12.8091	12.6657	0.000270168	0.00239421
12.8095	12.6662	0.000170738	0.00302427
12.81	12.6666	0.000120122	0.00421728
12.8105	12.6671	-0.00141843	0.00358706
12.8109	12.6676	-0.000363098	0.00277286
12.8114	12.6681	0.000342257	0.00235127
12.8119	12.6685	8.83762e-05	0.0030305
12.8124	12.669	7.33057e-05	0.00430881
12.8128	12.6695	-0.00136375	0.00356822
12.8133	12.6699	-0.000353628	0.00268659
12.8138	12.6704	0.000400809	0.00234923
12.8142	12.6709	6.53691e-05	0.00306787
12.8147	12.6713	2.24225e-05	0.00424793
12.8152	12.6718	-0.00132667	0.00366351
12.8157	12.6723	-0.000465863	0.00272272
12.8161	12.6727	0.000564195	0.00226999
12.8166	12.6732	6.95067e-05	0.00302411
12.8171	12.6737	1.68223e-05	0.00431348
12.8176	12.6741	-0.00129446	0.00361074
12.818	12.6746	-0.000466131	0.00257342
12.8185	12.6751	0.000632949	0.00228867
12.819	12.6756	-2.66593e-05	0.00305852
12.8194	12.6761	-8.95455e-05	0.00419484
12.8199	12.6765	-0.00119802	0.00351249
12.8204	12.677	-0.000520813	0.00257481
12.8209	12.6775	0.000494639	0.00239094
12.8213	12.678	-5.32691e-05	0.00315145
12.8218	12.6785	-0.000144228	0.0042249
12.8223	12.6789	-0.00120496	0.00356296
12.8227	12.6794	-0.00053262	0.00255269
12.8232	12.6799	0.000660023	0.00241864
12.8237	12.6803	-5.98681e-05	0.00327477
12.8242	12.6808	-1.51202e-05	0.00425432
12.8246	12.6813	-0.00125611	0.00349864
12.8251	12.6818	-0.000516212	0.00248468
12.8256	12.6822	0.000728777	0.00235857
12.8261	12.6827	-0.000120222	0.00327928
12.8265	12.6832	-0.000208647	0.00422614
12.827	12.6836	-0.00105158	0.00362738
12.8275	12.6841	-0.000515213	0.00256236
12.8279	12.6846	0.00089243	0.00243019
12.8284	12.685	-8.9813e-05	0.00317857
12.8289	12.6855	-0.000250595	0.00424654
12.8294	12.686	-0.00104138	0.00357272
12.8298	12.6865	-0.000491403	0.00240839
12.8303	12.687	0.000726779	0.00240592
12.8308	12.6874	-1.87228e-05	0.00310196
12.8312	12.6879	-0.000331156	0.00411608
12.8317	12.6884	-0.00098816	0.00351093
12.8322	12.6889	-0.000554289	0.00227031
12.8327	12.6893	0.000838747	0.00256236
12.8331	12.6898	-0.000103885	0.00331493
12.8336	12.6902	-0.00039711	0.0041237
12.8341	12.6907	-0.000954684	0.00356805
12.8346	12.6912	-0.000508079	0.00224991
12.835	12.6917	0.000779731	0.00259022
12.8355	12.6921	-0.000237059	0.00325641
12.836	12.6926	-0.000403245	0.00410003
12.8364	12.6931	-0.000880794	0.00364794
12.8369	12.6935	-0.000587302	0.00231965
12.8374	12.694	0.00088296	0.00247722
12.8379	12.6945	-0.000152432	0.00337269
12.8383	12.6949	-0.000534885	0.0042176
12.8388	12.6954	-0.000794901	0.00349258
12.8393	12.6959	-0.000638452	0.00216772
12.8397	12.6964	0.000935377	0.00262619
12.8402	12.6968	-0.000135025	0.00340367
12.8407	12.6973	-0.000539486	0.00409052
12.8412	12.6978	-0.000934013	0.00350503
12.8416	12.6983	-0.00061211	0.00218903
12.8421	12.6987	0.000891966	0.00269298
12.8426	12.6992	-8.18764e-05	0.00351453
12.8431	12.6996	-0.000572231	0.00409117
12.8435	12.7001	-0.000802035	0.00349569
12.844	12.7006	-0.000644588	0.002225
12.8445	12.7011	0.000993126	0.0025885
12.8449	12.7016	-0.000182109	0.00346439
12.8454	12.702	-0.000667327	0.00411936
12.8459	12.7025	-0.000852918	0.00346938
12.8464	12.703	-0.000662191	0.0021551
12.8468	12.7034	0.00095792	0.00264783
12.8473	12.7039	-0.000211448	0.00347217
12.8478	12.7044	-0.00077983	0.00414394
12.8482	12.7048	-0.000687998	0.00342719
12.8487	12.7053	-0.000694668	0.00213985
12.8492	12.7058	0.000985992	0.00269363
12.8497	12.7063	-0.000145298	0.00358534
12.8501	12.7068	-0.000834512	0.00410142
12.8506	12.7073	-0.000686	0.0033028
12.8511	12.7077	-0.000712075	0.00206915
12.8516	12.7082	0.000968122	0.00256531
12.852	12.7087	-0.00016777	0.00361213
12.8525	12.7091	-0.000723347	0.00411125
12.853	12.7096	-0.000614643	0.00327756
12.8534	12.7101	-0.000610041	0.0020634
12.8539	12.7105	0.000884297	0.00272223
12.8544	12.711	-8.36777e-05	0.0035701
12.8549	12.7115	-0.000794633	0.00394761
12.8553	12.712	-0.000627181	0.00323773
12.8558	12.7124	-0.000647923	0.00206652
12.8563	12.7129	0.000797869	0.00275337
12.8567	12.7134	-0.000141427	0.00370522
12.8572	12.7138	-0.00106178	0.00403791
12.8577	12.7143	-0.00055329	0.00338187
12.8582	12.7148	-0.000493204	0.00221222
12.8586	12.7153	0.000878893	0.0027523
12.8591	12.7158	-0.000160636	0.00365089
12.8596	12.7162	-0.00103011	0.00402922
12.8601	12.7167	-0.00043772	0.00336319
12.8605	12.7172	-0.000540752	0.00215945
12.861	12.7177	0.000815472	0.00267397
12.8615	12.7181	-0.000141427	0.0037893
12.8619	12.7186	-0.00108533	0.00406454
12.8624	12.7191	-0.000590102	0.0032075
12.8629	12.7195	-0.000425182	0.00208815
12.8634	12.72	0.000729847	0.00283138
12.8638	12.7205	-5.86018e-05	0.00385657
12.8643	12.7209	-0.00113414	0.00396941
12.8648	12.7214	-0.000474335	0.0031812
12.8652	12.7219	-0.000378971	0.00203227
12.8657	12.7223	0.000649286	0.00279836
12.8662	12.7228	-1.25876e-05	0.00377266
12.8667	12.7233	-0.00105258	0.00395105
12.8671	12.7237	-0.000451328	0.00317873
12.8676	12.7242	-0.000288673	0.00210388
12.8681	12.7247	0.000579533	0.0028222
12.8686	12.7251	1.37547e-05	0.0039431
12.869	12.7256	-0.00125278	0.00385673
12.8695	12.7261	-0.000524416	0.00311178
12.87	12.7266	-0.000362563	0.0021733
12.8704	12.727	0.000403342	0.00282655
12.8709	12.7275	-3.17116e-07	0.00390655
12.8714	12.728	-0.00134381	0.00395416
12.8719	12.7285	-0.000368966	0.00312048
12.8723	12.7289	-0.000254662	0.00215461
12.8728	12.7294	0.000583332	0.0027691
12.8733	12.7299	6.99705e-05	0.00389951
12.8737	12.7303	-0.00127759	0.00381437
12.8742	12.7308	-0.000374566	0.00316456
12.8747	12.7313	-0.000110751	0.00209733
12.8752	12.7318	0.000562394	0.00275263
12.8756	12.7322	-1.31593e-06	0.00381093
12.8761	12.7327	-0.00142123	0.00388115
12.8766	12.7332	-0.000356696	0.00304623
12.8771	12.7336	-0.000115888	0.00214887
12.8775	12.7341	0.000552924	0.00290546
12.878	12.7346	7.97084e-05	0.00404398
12.8785	12.7351	-0.00145704	0.00382076
12.8789	12.7356	-0.00037997	0.00308155
12.8794	12.7361	8.2776e-05	0.00209315
12.8799	12.7365	0.000444023	0.00290595
12.8804	12.737	9.49192e-07	0.0039663
12.8808	12.7375	-0.00138902	0.00370957
12.8813	12.738	-0.000309147	0.00291733
12.8818	12.7384	-2.61243e-05	0.00226172
12.8822	12.7389	0.000405946	0.00272412
12.8827	12.7394	9.63128e-05	0.00401381
12.8832	12.7398	-0.00150252	0.00375242
12.8837	12.7403	-0.000328819	0.00288759
12.8841	12.7408	6.08561e-06	0.00210791
12.8846	12.7413	0.000378801	0.00289489
12.8851	12.7417	9.22463e-05	0.00406266
12.8856	12.7422	-0.00157081	0.003782
12.886	12.7427	-0.00040271	0.00283916
12.8865	12.7431	0.000127791	0.00216444
12.887	12.7436	0.000272968	0.00278967
12.8874	12.7441	0.000121656	0.00403824
12.8879	12.7445	-0.00159022	0.00362443
12.8884	12.745	-0.000402442	0.00290079
12.8889	12.7455	1.91586e-05	0.00212954
12.8893	12.746	0.000307514	0.00295904
12.8898	12.7464	0.000116252	0.0041346
12.8903	12.7469	-0.00147978	0.00360263
12.8907	12.7474	-0.000299945	0.00290455
12.8912	12.7479	0.000221354	0.00222484
12.8917	12.7483	0.000145662	0.00292061
12.8922	12.7488	0.000176606	0.0041455
12.8926	12.7493	-0.00148465	0.000784768
12.8931	12.7497	-0.000428517	0.00352511
12.8936	12.7502	0.000107317	0.00240339
12.8941	12.7507	7.05055e-05	0.00298396
12.8945	12.7511	0.0001582	0.00429029
12.895	12.7516	-0.00145931	0.00363205
12.8955	12.7521	-0.000428784	0.00281581
12.8959	12.7525	0.000299845	0.00228744
12.8964	12.753	4.74984e-05	0.00293086
12.8969	12.7535	0.000134194	0.00424547
12.8974	12.7539	-0.00149025	0.00358894
12.8978	12.7544	-0.000450793	0.00276288
12.8983	12.7549	0.000299043	0.00220304
12.8988	12.7554	2.06924e-05	0.00298551
