# 1304     AichiSR QXAFS
# Start     : 8.9544
# End       : 9.0544
# Dir       : Forward
# Points    : 300
# ScanTime  : 1.01549
# Date      : 13.04.24 00:10
# Ring Cur. : 1[mA]
12.7557	12.7563	0.000573398	0.00289677
12.7562	12.7558	0.000130859	0.00401644
12.7566	12.7553	-0.00135708	0.00393843
12.7571	12.7548	-0.000300212	0.00305852
12.7576	12.7544	-8.16089e-05	0.00217862
12.7581	12.7539	0.000451692	0.00282408
12.7585	12.7534	8.71099e-05	0.00403136
12.759	12.753	-0.00129446	0.00377324
12.7595	12.7525	-0.000345959	0.00297724
12.7599	12.752	4.28431e-06	0.00217018
12.7604	12.7516	0.000518181	0.00287964
12.7609	12.7511	9.83816e-05	0.00408822
12.7614	12.7506	-0.00138749	0.00387788
12.7618	12.7502	-0.00039604	0.00293274
12.7623	12.7497	3.00915e-05	0.00221442
12.7628	12.7492	0.000595406	0.00284212
12.7632	12.7488	0.00011372	0.00409429
12.7637	12.7483	-0.00139162	0.00381485
12.7642	12.7478	-0.000350025	0.00319816
12.7647	12.7474	6.10352e-05	0.00218608
12.7651	12.7469	0.000360663	0.00291824
12.7656	12.7464	0.000138528	0.00402267
12.7661	12.7459	-0.00140129	0.00371333
12.7666	12.7455	-0.000356428	0.00278934
12.767	12.745	9.17113e-05	0.00222951
12.7675	12.7445	0.000349391	0.00287653
12.768	12.744	0.000157469	0.00414362
12.7684	12.7436	-0.00142863	0.00367548
12.7689	12.7431	-0.00038944	0.00287948
12.7694	12.7426	8.83762e-05	0.00226532
12.7699	12.7422	0.000279906	0.00290439
12.7703	12.7417	0.000100914	0.00412666
12.7708	12.7412	-0.00139335	0.00358427
12.7713	12.7407	-0.000303547	0.00283449
12.7717	12.7403	0.000200683	0.00219714
12.7722	12.7398	0.000305446	0.0028921
12.7727	12.7393	0.000191944	0.0040865
12.7732	12.7389	-0.00137241	0.00359673
12.7736	12.7384	-0.000313749	0.00283482
12.7741	12.7379	0.000126525	0.00224835
12.7746	12.7375	0.000218554	0.0029125
12.7751	12.737	0.000231092	0.00421212
12.7755	12.7365	-0.0014335	0.00365089
12.776	12.736	-0.000424718	0.0029016
12.7765	12.7355	0.000249961	0.00223155
12.7769	12.735	0.000218554	0.00294299
12.7774	12.7346	0.000174804	0.00417524
12.7779	12.7341	-0.00141509	0.00367892
12.7784	12.7336	-0.000356428	0.00282564
12.7788	12.7331	0.000361198	0.00229227
12.7793	12.7327	0.000165869	0.00297757
12.7798	12.7322	0.000170738	0.00432733
12.7802	12.7317	-0.00135428	0.00368031
12.7807	12.7313	-0.000371766	0.00271477
12.7812	12.7308	0.00032872	0.00218608
12.7817	12.7303	8.61111e-05	0.00306336
12.7821	12.7298	0.000242292	0.00417664
12.7826	12.7294	-0.00132793	0.0036663
12.7831	12.7289	-0.000254662	0.00269249
12.7836	12.7284	0.000402611	0.00221254
12.784	12.728	0.000162267	0.00303517
12.7845	12.7275	0.000199345	0.00425014
12.785	12.727	-0.00134454	0.00364499
12.7854	12.7266	-0.000295611	0.00266216
12.7859	12.7261	0.000450426	0.00236823
12.7864	12.7256	5.08335e-05	0.00307705
12.7869	12.7251	0.000101717	0.00429808
12.7873	12.7246	-0.00134841	0.00359533
12.7878	12.7242	-0.000407311	0.00274001
12.7883	12.7237	0.000471632	0.00229629
12.7887	12.7232	7.53745e-05	0.00301198
12.7892	12.7228	4.59646e-05	0.00412542
12.7897	12.7223	-0.00138162	0.00357337
12.7902	12.7218	-0.000405777	0.00259441
12.7906	12.7214	0.000500774	0.00223729
12.7911	12.7209	-6.34707e-05	0.00303222
12.7916	12.7204	5.3543e-06	0.00425384
12.7921	12.72	-0.0013144	0.00372251
12.7925	12.7195	-0.000392241	0.00264595
12.793	12.719	0.000534518	0.00227015
12.7935	12.7186	2.50263e-05	0.00319242
12.7939	12.7181	2.83614e-05	0.00418926
12.7944	12.7176	-0.00128806	0.0035782
12.7949	12.7172	-0.000354627	0.00258104
12.7954	12.7167	0.000539654	0.00235513
12.7958	12.7162	9.12475e-05	0.00314104
12.7963	12.7157	-0.000173102	0.00413509
12.7968	12.7152	-0.00127452	0.00357944
12.7972	12.7148	-0.000320687	0.00268707
12.7977	12.7143	0.000644952	0.0023911
12.7982	12.7138	9.15323e-06	0.00316906
12.7987	12.7133	-0.000162169	0.0040924
12.7991	12.7129	-0.0013292	0.00358706
12.7996	12.7124	-0.000469662	0.00261422
12.8001	12.7119	0.000641421	0.0023103
12.8006	12.7115	2.42238e-05	0.00313497
12.801	12.711	-8.77442e-05	0.00422662
12.8015	12.7105	-0.00103344	0.00359517
12.802	12.71	-0.00042165	0.00247362
12.8024	12.7096	0.000628348	0.00242675
12.8029	12.7091	-9.25246e-06	0.00313277
12.8034	12.7087	-0.000197911	0.00434945
12.8039	12.7082	-0.00111754	0.00354674
12.8043	12.7077	-0.000420117	0.00244092
12.8048	12.7072	0.000777395	0.00236447
12.8053	12.7068	4.56971e-05	0.00337081
12.8057	12.7063	-0.000160101	0.00412494
12.8062	12.7058	-0.00102804	0.00347373
12.8067	12.7053	-0.000394506	0.00231981
12.8072	12.7048	0.000809872	0.00239953
12.8076	12.7043	2.11562e-05	0.00332615
12.8081	12.7039	-0.000212785	0.0042839
12.8086	12.7034	-0.00103264	0.00357444
12.8091	12.7029	-0.000396842	0.00236152
12.8095	12.7025	0.000842082	0.00249386
12.81	12.702	6.28365e-05	0.00329936
12.8105	12.7015	-0.000348759	0.00412714
12.8109	12.701	-0.00104571	0.00353912
12.8114	12.7006	-0.000409112	0.00233833
12.8119	12.7001	0.000733913	0.00252081
12.8124	12.6996	2.11562e-05	0.0032869
12.8128	12.6992	-0.000343159	0.00404275
12.8133	12.6987	-0.000964155	0.00349553
12.8138	12.6983	-0.000484733	0.00235733
12.8142	12.6978	0.000851017	0.0025644
12.8147	12.6973	-8.59429e-05	0.00330263
12.8152	12.6968	-0.000459461	0.00414411
12.8157	12.6964	-0.000893599	0.00344308
12.8161	12.6959	-0.000441322	0.00237258
12.8166	12.6954	0.000937178	0.00247394
12.8171	12.6949	-9.84808e-05	0.00332287
12.8176	12.6944	-0.000371766	0.00411345
12.818	12.694	-0.000864921	0.00349569
12.8185	12.6935	-0.000585768	0.00233693
12.819	12.693	0.000852551	0.00248763
12.8194	12.6926	-9.30769e-05	0.00327944
12.8199	12.6921	-0.000416782	0.00421991
12.8204	12.6917	-0.00071821	0.00358288
12.8209	12.6912	-0.000593437	0.00232292
12.8213	12.6907	0.000993661	0.00261841
12.8218	12.6902	-0.000149096	0.00340883
12.8223	12.6898	-0.000604441	0.00427939
12.8227	12.6893	-0.000805637	0.00357772
12.8232	12.6888	-0.000576833	0.00221566
12.8237	12.6884	0.000846951	0.00261685
12.8242	12.6879	-7.08723e-05	0.00341645
12.8246	12.6874	-0.000528214	0.00423236
12.8251	12.6869	-0.000747816	0.00347185
12.8256	12.6865	-0.000532816	0.00227031
12.8261	12.686	0.00102641	0.00262464
12.8265	12.6855	-5.03978e-05	0.00338762
12.827	12.685	-0.000648119	0.0041505
12.8275	12.6845	-0.000774694	0.00343186
12.8279	12.6841	-0.000391706	0.00222844
12.8284	12.6836	0.000998798	0.00268176
12.8289	12.6831	-1.05188e-05	0.00353257
12.8294	12.6827	-0.000559426	0.00418238
12.8298	12.6822	-0.000636919	0.00343776
12.8303	12.6817	-0.000502675	0.00220959
12.8308	12.6813	0.000922108	0.00250615
12.8312	12.6808	-7.36724e-05	0.00355034
12.8317	12.6803	-0.000725344	0.0040588
12.8322	12.6798	-0.000757554	0.00341424
12.8327	12.6794	-0.000594703	0.00219746
12.8331	12.6789	0.00105988	0.00265873
12.8336	12.6784	-7.95401e-05	0.00355501
12.8341	12.678	-0.000676798	0.00409756
12.8346	12.6775	-0.000591636	0.00338515
12.835	12.677	-0.000610041	0.00220943
12.8355	12.6765	0.00103301	0.00270683
12.836	12.676	-8.4409e-05	0.00353134
12.8364	12.6756	-0.000689068	0.00420187
12.8369	12.6751	-0.00054102	0.00326994
12.8374	12.6746	-0.000478401	0.002102
12.8379	12.6741	0.00101567	0.00262292
12.8383	12.6736	-1.10538e-05	0.00367532
12.8388	12.6732	-0.000857519	0.00407748
12.8393	12.6727	-0.000631782	0.00346316
12.8397	12.6723	-0.000602372	0.00217797
12.8402	12.6718	0.000981926	0.00277066
12.8407	12.6713	-2.8657e-05	0.00357026
12.8412	12.6708	-0.00084985	0.00405536
12.8416	12.6704	-0.000559158	0.00338654
12.8421	12.6699	-0.000574032	0.00219247
12.8426	12.6694	0.00094458	0.00265873
12.8431	12.669	-0.000112285	0.00361557
12.8435	12.6685	-0.00095035	0.00406175
12.844	12.6681	-0.000545621	0.00335761
12.8445	12.6676	-0.000510344	0.00210109
12.8449	12.6671	0.000946113	0.00269781
12.8454	12.6666	-6.5272e-05	0.00355608
12.8459	12.6661	-0.000853185	0.00397752
12.8464	12.6657	-0.000430853	0.00331804
12.8468	12.6652	-0.000551489	0.00212847
12.8473	12.6647	0.000917506	0.00256392
12.8478	12.6642	-4.65988e-05	0.00369465
12.8482	12.6638	-0.000913806	0.00400522
12.8487	12.6633	-0.000515213	0.00319193
12.8492	12.6628	-0.000518013	0.00216616
12.8497	12.6624	0.000840816	0.00277377
12.8501	12.6619	2.70239e-05	0.00369964
12.8506	12.6615	-0.00103598	0.00400227
12.8511	12.661	-0.000451524	0.00327117
12.8516	12.6605	-0.000459996	0.00200719
12.852	12.66	0.000821073	0.00279139
12.8525	12.6595	-3.7931e-05	0.00369465
12.853	12.6591	-0.00104491	0.00404446
12.8534	12.6586	-0.000465596	0.00327805
12.8539	12.6582	-0.000422917	0.0021733
12.8544	12.6577	0.000817006	0.00278172
12.8549	12.6572	-5.45354e-06	0.0037625
12.8553	12.6567	-0.00106205	0.00395867
12.8558	12.6563	-0.000456928	0.00318882
12.8563	12.6558	-0.000267467	0.00217641
12.8567	12.6553	0.000694301	0.00279992
12.8572	12.6548	-3.65935e-05	0.00362786
12.8577	12.6543	-0.00110653	0.00388115
12.8582	12.6539	-0.000397841	0.00328272
12.8586	12.6534	-0.000282805	0.00211725
12.8591	12.6529	0.000700169	0.00276615
12.8596	12.6525	-4.65988e-05	0.00387165
12.8601	12.652	-0.00102317	0.00392909
12.8605	12.6515	-0.000372765	0.003281
12.861	12.651	-0.000265398	0.00211929
12.8615	12.6506	0.00070964	0.00280352
12.8619	12.6501	6.21052e-05	0.00384207
12.8624	12.6496	-0.00113974	0.00383568
12.8629	12.6491	-0.00048887	0.00311473
12.8634	12.6487	-0.000237059	0.00223869
12.8638	12.6482	0.000655956	0.00277549
12.8643	12.6477	5.95014e-05	0.00397317
12.8648	12.6473	-0.00120163	0.00381093
12.8652	12.6468	-0.000365898	0.00308081
12.8657	12.6463	-0.000209182	0.00216551
12.8662	12.6458	0.000519715	0.00275869
12.8667	12.6453	0.000120854	0.00384658
12.8671	12.6449	-0.00139109	0.00385764
12.8676	12.6444	-0.00043879	0.0029992
12.8681	12.6439	-9.82133e-05	0.0021238
12.8686	12.6434	0.000530452	0.00275697
12.869	12.643	5.5435e-05	0.00396367
12.8695	12.6425	-0.00140309	0.00392115
12.87	12.6421	-0.00041498	0.00300264
12.8704	12.6416	-0.000204581	0.0020757
12.8709	12.6411	0.000540653	0.00275853
12.8714	12.6406	0.000125455	0.00399014
12.8719	12.6402	-0.00144351	0.00370866
12.8723	12.6397	-0.000419047	0.00298642
12.8728	12.6392	-0.000186175	0.00219542
12.8733	12.6388	0.000534518	0.00288169
12.8737	12.6383	0.000201147	0.00396023
12.8742	12.6378	-0.00145397	0.00394064
12.8747	12.6374	-0.000236791	0.00306287
12.8752	12.6369	-4.47975e-05	0.00215166
12.8756	12.6364	0.000542187	0.00283261
12.8761	12.6359	0.000211348	0.00403013
12.8766	12.6355	-0.00135554	0.00380282
12.8771	12.635	-0.000365631	0.0029824
12.8775	12.6345	2.3225e-05	0.00217878
12.878	12.634	0.000503307	0.00286203
12.8785	12.6336	0.000263569	0.00415312
12.8789	12.6331	-0.00139009	0.00388287
12.8794	12.6326	-0.000344889	0.00292447
12.8799	12.6322	1.62873e-05	0.00232104
12.8804	12.6317	0.000427615	0.00299469
12.8808	12.6312	0.00016767	0.00415312
12.8813	12.6308	-0.00135167	0.0036903
12.8818	12.6303	-0.000313749	0.0029679
12.8822	12.6298	0.000146465	0.00231965
12.8827	12.6293	0.000399008	0.00291873
12.8832	12.6289	0.000122655	0.00413149
12.8837	12.6284	-0.00142456	0.00382634
12.8841	12.6279	-0.000326287	0.00299158
12.8846	12.6275	0.000155132	0.00223123
12.8851	12.627	0.000314916	0.00280786
12.8856	12.6265	0.000308781	0.00422179
12.886	12.626	-0.00136501	0.00382698
12.8865	12.6255	-0.000274137	0.0029198
12.887	12.6251	0.000106586	0.00220476
12.8874	12.6246	0.000328453	0.00288292
12.8879	12.6241	0.0001666	0.00418426
12.8884	12.6236	-0.00139902	0.00353461
12.8889	12.6232	-0.000238325	0.00280835
12.8893	12.6227	0.000211883	0.00218312
12.8898	12.6222	0.000278568	0.00298175
12.8903	12.6218	0.000137458	0.0041818
12.8907	12.6213	-0.00138675	0.00360419
12.8912	12.6208	-0.000292008	0.00285039
12.8917	12.6203	0.000314113	0.00217067
12.8922	12.6198	0.000224689	0.00304435
12.8926	12.6194	0.000220284	0.00424965
12.8931	12.6189	-0.00134427	0.00367253
12.8936	12.6185	-0.000328552	0.00276927
12.8941	12.618	0.000301647	0.00238987
12.8945	12.6175	0.00028704	0.00293037
12.895	12.617	0.000167938	0.00419221
12.8955	12.6166	-0.00132513	0.00363516
12.8959	12.6161	-0.000281271	0.00275493
12.8964	12.6156	0.000285506	0.00231342
12.8969	12.6151	0.000180208	0.00311564
12.8974	12.6147	0.000276838	0.00419377
12.8978	12.6142	-0.00132307	0.00358099
12.8983	12.6137	-0.000192578	0.00265717
12.8988	12.6132	0.000389805	0.00227809
