# 1304     AichiSR QXAFS
# Start     : 8.9544
# End       : 9.0544
# Dir       : Backward
# Points    : 300
# ScanTime  : 1.01549
# Date      : 13.04.23 23:02
# Ring Cur. : 0.9[mA]
12.7557	12.6122	-0.000437987	0.00323069
12.7562	12.6126	-0.000320348	0.0021551
12.7566	12.6131	0.000675896	0.00280319
12.7571	12.6136	9.15323e-06	0.00392893
12.7576	12.614	-0.00135554	0.00396383
12.7581	12.6145	-0.000396575	0.0032388
12.7585	12.615	-0.000184642	0.00214839
12.759	12.6155	0.000710638	0.00278827
12.7595	12.6159	-2.11842e-06	0.00387181
12.7599	12.6164	-0.00131973	0.00397752
12.7604	12.6169	-0.000317548	0.00298535
12.7609	12.6174	-0.000293078	0.00206791
12.7614	12.6178	0.000543453	0.00280926
12.7618	12.6183	3.18928e-05	0.00386419
12.7623	12.6188	-0.00150819	0.00392147
12.7628	12.6192	-0.000443124	0.00314448
12.7632	12.6197	-0.00027667	0.00210012
12.7637	12.6202	0.000590003	0.00289537
12.7642	12.6207	8.83762e-05	0.0039708
12.7647	12.6211	-0.00141789	0.00388083
12.7651	12.6216	-0.000400177	0.00308155
12.7656	12.6221	-6.32032e-05	0.00210839
12.7661	12.6225	0.000572863	0.00288947
12.7666	12.623	7.17718e-05	0.0039976
12.767	12.6235	-0.00142917	0.0039372
12.7675	12.624	-0.000286408	0.00302878
12.768	12.6244	-0.000127891	0.00220911
12.7684	12.6249	0.000497707	0.00289816
12.7689	12.6254	0.000162534	0.00413895
12.7694	12.6259	-0.00128752	0.00388754
12.7699	12.6263	-0.000369768	0.00299158
12.7703	12.6268	-1.31226e-05	0.00217969
12.7708	12.6273	0.000448357	0.00286407
12.7713	12.6278	0.000117786	0.00410765
12.7717	12.6283	-0.00141229	0.00391991
12.7722	12.6287	-0.000413179	0.00294348
12.7727	12.6292	4.56971e-05	0.00215182
12.7732	12.6296	0.000299578	0.00291561
12.7736	12.6301	3.54955e-05	0.00411624
12.7741	12.6306	-0.00148772	0.00370243
12.7746	12.6311	-0.000299945	0.00292635
12.7751	12.6316	0.000127791	0.00223836
12.7755	12.632	0.000400809	0.00292447
12.776	12.6325	0.000152065	0.00411248
12.7765	12.6329	-0.00152073	0.00365213
12.7769	12.6334	-0.000331887	0.00297961
12.7774	12.6339	0.000185809	0.00229055
12.7779	12.6343	0.000287842	0.00297429
12.7784	12.6348	0.000202413	0.00405848
12.7788	12.6353	-0.00138315	0.0037893
12.7793	12.6358	-0.000367432	0.00286874
12.7798	12.6363	0.000207014	0.0020721
12.7802	12.6367	0.000323584	0.00297461
12.7807	12.6372	0.000116787	0.00413288
12.7812	12.6377	-0.00147905	0.00365122
12.7817	12.6382	-0.000410379	0.0028127
12.7821	12.6386	0.000239492	0.00231546
12.7826	12.6391	0.000113987	0.00291078
12.7831	12.6395	0.000208548	0.00417664
12.7836	12.64	-0.00146291	0.00365835
12.784	12.6405	-0.000319884	0.00279213
12.7845	12.6409	0.000161535	0.00226204
12.785	12.6414	0.000261768	0.00295266
12.7854	12.6419	0.000147196	0.0041986
12.7859	12.6424	-0.00149385	0.00364188
12.7864	12.6428	-0.00029941	0.00277893
12.7869	12.6433	0.000338458	0.00210496
12.7873	12.6437	0.0002615	0.00303345
12.7878	12.6442	6.81692e-05	0.00414862
12.7883	12.6447	-0.00140056	0.00365352
12.7887	12.6452	-0.000339824	0.00276336
12.7892	12.6457	0.000394941	0.00236963
12.7897	12.6461	0.000163069	0.00304854
12.7902	12.6466	4.72309e-05	0.00429792
12.7906	12.6471	-0.0014335	0.00365712
12.7911	12.6476	-0.000489869	0.00270371
12.7916	12.6481	0.000442222	0.0023947
12.7921	12.6485	0.000102181	0.00311924
12.7925	12.649	2.88252e-05	0.00408994
12.793	12.6495	-0.00129959	0.00359313
12.7935	12.6499	-0.000321685	0.00257014
12.7939	12.6504	0.000456294	0.00224958
12.7944	12.6509	6.28365e-05	0.00306459
12.7949	12.6514	7.38407e-05	0.00418802
12.7954	12.6518	-0.001321	0.00356526
12.7958	12.6523	-0.000413446	0.00257981
12.7963	12.6528	0.000591269	0.0024238
12.7968	12.6532	7.33057e-05	0.00308843
12.7972	12.6537	-2.27892e-05	0.00432562
12.7977	12.6542	-0.00128192	0.00364467
12.7982	12.6547	-0.00034776	0.00259924
12.7987	12.6551	0.000592268	0.00234767
12.7991	12.6556	5.23673e-05	0.00321577
12.7996	12.6561	-5.86018e-05	0.0042154
12.8001	12.6566	-0.00119756	0.00357353
12.8006	12.6571	-0.00044719	0.0024828
12.801	12.6575	0.000676627	0.00240823
12.8015	12.658	-4.3995e-05	0.00310179
12.802	12.6585	-0.000187977	0.00429432
12.8024	12.6589	-0.00106458	0.00360714
12.8029	12.6594	-0.000506545	0.00269282
12.8034	12.6599	0.00076079	0.00241682
12.8039	12.6603	-2.9192e-05	0.00311876
12.8043	12.6608	-0.000146029	0.00424187
12.8048	12.6613	-0.00109093	0.00366958
12.8053	12.6618	-0.000467665	0.00248361
12.8057	12.6622	0.000751587	0.00234005
12.8062	12.6627	-7.98616e-06	0.00314136
12.8067	12.6631	-0.000259798	0.00422318
12.8072	12.6636	-0.00117248	0.00346439
12.8076	12.6641	-0.000636384	0.00246895
12.8081	12.6646	0.000687899	0.00252532
12.8086	12.665	3.39617e-05	0.00327821
12.8091	12.6655	-0.000226322	0.0042372
12.8095	12.666	-0.0010109	0.00348012
12.81	12.6665	-0.000542019	0.00251082
12.8105	12.6669	0.000872491	0.00250599
12.8109	12.6674	-5.24666e-05	0.0032075
12.8114	12.6679	-0.000390172	0.00430135
12.8119	12.6684	-0.00103724	0.00353756
12.8124	12.6688	-0.000420384	0.00239142
12.8128	12.6693	0.000881426	0.00253434
12.8133	12.6697	-6.9606e-05	0.00331402
12.8138	12.6702	-0.000325217	0.00416714
12.8142	12.6707	-0.000889462	0.0035206
12.8147	12.6712	-0.000495541	0.0022949
12.8152	12.6716	0.000871492	0.00267446
12.8157	12.6721	-0.000113819	0.00339884
12.8161	12.6726	-0.000513411	0.00414411
12.8166	12.673	-0.000813306	0.00356977
12.8171	12.6735	-0.000535884	0.00230317
12.8176	12.674	0.000917239	0.00254089
12.818	12.6744	-0.000151897	0.00337458
12.8185	12.6749	-0.000388905	0.0042503
12.819	12.6754	-0.000865456	0.00338966
12.8194	12.6759	-0.000649189	0.00231267
12.8199	12.6764	0.0010006	0.00267741
12.8204	12.6768	-0.000102815	0.00340056
12.8209	12.6773	-0.000470465	0.00425727
12.8213	12.6778	-0.000906066	0.00348962
12.8218	12.6783	-0.000639451	0.00218345
12.8223	12.6787	0.000986527	0.00270731
12.8227	12.6792	-8.34102e-05	0.00342858
12.8232	12.6797	-0.000720208	0.00416902
12.8237	12.6801	-0.000808705	0.00356731
12.8242	12.6806	-0.000656858	0.00216412
12.8246	12.6811	0.000958116	0.00264659
12.8251	12.6816	-0.000124823	0.00353257
12.8256	12.682	-0.000524416	0.00421679
12.8261	12.6825	-0.000739149	0.00348152
12.8265	12.683	-0.000669396	0.0020022
12.827	12.6834	0.000944847	0.00266807
12.8275	12.6839	-0.000152164	0.00348168
12.8279	12.6844	-0.000759623	0.00415968
12.8284	12.6849	-0.000800768	0.0032883
12.8289	12.6853	-0.000533351	0.00220755
12.8294	12.6858	0.000983727	0.00279745
12.8298	12.6863	-6.9606e-05	0.0034952
12.8303	12.6868	-0.000783094	0.00419999
12.8308	12.6873	-0.000587034	0.0034689
12.8312	12.6878	-0.000665526	0.00223262
12.8317	12.6882	0.000904433	0.00278344
12.8322	12.6887	-0.000125358	0.00355313
12.8327	12.6891	-0.000778029	0.00412559
12.8331	12.6896	-0.000691601	0.00333533
12.8336	12.6901	-0.000645586	0.00201063
12.8341	12.6905	0.000858686	0.00270511
12.8346	12.691	-0.000124823	0.00351389
12.835	12.6915	-0.000951082	0.00402825
12.8355	12.692	-0.000536419	0.00341457
12.836	12.6924	-0.00052108	0.00202555
12.8364	12.6929	0.000937178	0.00279868
12.8369	12.6934	-0.000138092	0.00373931
12.8374	12.6938	-0.000911203	0.00399604
12.8379	12.6943	-0.000578366	0.00335245
12.8383	12.6948	-0.00042165	0.00206201
12.8388	12.6952	0.000803737	0.00273829
12.8393	12.6957	-5.40004e-05	0.00364729
12.8397	12.6962	-0.00100503	0.00413288
12.8402	12.6967	-0.000625379	0.00323536
12.8407	12.6971	-0.000542554	0.00210356
12.8412	12.6976	0.000755119	0.00278419
12.8416	12.6981	-4.71338e-05	0.003718
12.8421	12.6986	-0.00103111	0.00409896
12.8426	12.699	-0.000411645	0.0032329
12.8431	12.6995	-0.00045106	0.00211118
12.8435	12.6999	0.000800937	0.00273952
12.844	12.7004	-3.17116e-07	0.00375037
12.8445	12.7009	-0.00108172	0.00402063
12.8449	12.7014	-0.000469466	0.00321529
12.8454	12.7019	-0.000466595	0.00223606
12.8459	12.7023	0.000735714	0.00273485
12.8464	12.7028	3.80281e-05	0.00378725
12.8468	12.7032	-0.00111547	0.00397645
12.8473	12.7037	-0.000362563	0.00315908
12.8478	12.7042	-0.000404511	0.00215649
12.8482	12.7047	0.000584135	0.00275246
12.8487	12.7052	-4.47975e-05	0.00376503
12.8492	12.7056	-0.00118882	0.00403824
12.8497	12.7061	-0.000388174	0.00315833
12.8501	12.7066	-0.000368966	0.00201933
12.8506	12.7071	0.000698903	0.00278188
12.8511	12.7076	8.12422e-05	0.00385485
12.8516	12.708	-0.00130593	0.00404586
12.852	12.7085	-0.00041778	0.00320643
12.8525	12.709	-0.000335954	0.00214543
12.853	12.7094	0.000606874	0.0028004
12.8534	12.7099	3.5228e-05	0.00383428
12.8539	12.7104	-0.00135888	0.00391229
12.8544	12.7109	-0.000409844	0.00299829
12.8549	12.7113	-0.000224253	0.00216288
12.8553	12.7118	0.000594871	0.00282655
12.8558	12.7123	-1.23201e-05	0.00385796
12.8563	12.7127	-0.00136961	0.00384051
12.8567	12.7132	-0.00040271	0.00290627
12.8572	12.7137	-0.000164167	0.00211151
12.8577	12.7141	0.00051638	0.00288136
12.8582	12.7146	9.50465e-05	0.00397629
12.8586	12.7151	-0.00134481	0.0037697
12.8591	12.7156	-0.000472997	0.00305681
12.8596	12.7161	-3.17958e-05	0.00209143
12.8601	12.7165	0.000547056	0.0027006
12.8605	12.717	0.000115788	0.00398358
12.861	12.7175	-0.0014297	0.00380691
12.8615	12.718	-0.0003677	0.00294954
12.8619	12.7184	-9.05443e-05	0.00205857
12.8624	12.7189	0.00043482	0.00289194
12.8629	12.7194	6.33715e-05	0.00393097
12.8634	12.7198	-0.00142303	0.00383584
12.8638	12.7203	-0.000325217	0.00312252
12.8643	12.7208	-1.7189e-05	0.00208504
12.8648	12.7212	0.000392141	0.00291357
12.8652	12.7217	0.000157201	0.00402685
12.8657	12.7222	-0.00140282	0.00380798
12.8662	12.7226	-0.000301746	0.00298535
12.8667	12.7231	0.000138796	0.00214887
12.8671	12.7235	0.000298775	0.00297429
12.8676	12.724	7.20393e-05	0.00406921
12.8681	12.7245	-0.00149565	0.00368203
12.8686	12.725	-0.000364365	0.00305557
12.869	12.7255	5.85026e-05	0.00214232
12.8695	12.7259	0.000425083	0.00294299
12.87	12.7264	0.000178675	0.00427193
12.8704	12.7269	-0.00150793	0.00381748
12.8709	12.7274	-0.000402442	0.00291389
12.8714	12.7278	0.000286041	0.00223171
12.8719	12.7283	0.000122655	0.00293881
12.8723	12.7288	0.000268367	0.00421744
12.8728	12.7292	-0.0015442	0.00380782
12.8733	12.7297	-0.00030328	0.0028885
12.8737	12.7302	0.000239224	0.00229023
12.8742	12.7306	0.000125455	0.00302443
12.8747	12.7311	0.000132125	0.0041659
12.8752	12.7316	-0.00144784	0.00366507
12.8756	12.7321	-0.000425449	0.00278967
12.8761	12.7325	0.000251227	0.00223745
12.8766	12.733	0.000142327	0.00290767
12.8771	12.7335	0.000217751	0.00418909
12.8775	12.734	-0.00138162	0.00369153
12.878	12.7344	-0.000386569	0.00278934
12.8785	12.7349	0.000219552	0.00226532
12.8789	12.7354	0.000159466	0.00301075
12.8794	12.7359	0.000176606	0.00422335
12.8799	12.7364	-0.00141483	0.00371349
12.8804	12.7368	-0.000384572	0.002721
12.8808	12.7373	0.000296243	0.00236512
12.8813	12.7378	0.000103251	0.00306787
12.8818	12.7383	0.000116787	0.00427317
12.8822	12.7387	-0.00139722	0.00370367
12.8827	12.7392	-0.00033549	0.00268068
12.8832	12.7397	0.000356329	0.00235545
12.8837	12.7401	0.000129058	0.00309712
12.8841	12.7406	9.81141e-05	0.00419237
12.8846	12.7411	-0.00135734	0.00358755
12.8851	12.7416	-0.000330888	0.00273657
12.8856	12.742	0.000471899	0.00238225
12.886	12.7425	7.61058e-05	0.00302739
12.8865	12.743	9.27102e-05	0.00427596
12.887	12.7434	-0.0013246	0.0036881
12.8874	12.7439	-0.000390172	0.00273608
12.8879	12.7444	0.000508711	0.00240388
12.8884	12.7448	4.67671e-05	0.00316472
12.8889	12.7453	6.77054e-05	0.00428128
12.8893	12.7458	-0.00127425	0.00365884
12.8898	12.7463	-0.000507009	0.0026561
12.8903	12.7468	0.000559326	0.00233833
12.8907	12.7472	-3.09933e-05	0.00316407
12.8912	12.7477	-9.92833e-05	0.00424047
12.8917	12.7482	-0.00126838	0.00358722
12.8922	12.7486	-0.000435455	0.00257637
12.8926	12.7491	0.000666158	0.00245338
12.8931	12.7496	-1.49239e-05	0.00314415
12.8936	12.75	-8.77442e-05	0.00419377
12.8941	12.7505	-0.00123951	0.00366179
12.8945	12.751	-0.000368966	0.00253917
12.895	12.7514	0.000767924	0.00244919
12.8955	12.7519	2.34925e-05	0.00315956
12.8959	12.7524	-0.000161367	0.00432487
12.8964	12.7528	-0.00115642	0.00353896
12.8969	12.7533	-0.000423452	0.00257653
12.8974	12.7538	0.000733449	0.00233538
12.8978	12.7542	6.71704e-05	0.00331557
12.8983	12.7547	-0.000169571	0.00420729
12.8988	12.7552	-0.00111033	0.00347217
