# 1304     AichiSR QXAFS
# Start     : 8.9544
# End       : 9.0544
# Dir       : Backward
# Points    : 300
# ScanTime  : 1.01549
# Date      : 13.04.24 00:02
# Ring Cur. : 1[mA]
12.7557	12.6124	0.000443488	0.00229227
12.7562	12.6128	7.0238e-05	0.00294283
12.7566	12.6133	0.000196278	0.00424547
12.7571	12.6138	-0.00130213	0.00364843
12.7576	12.6142	-0.000352362	0.00258588
12.7581	12.6147	0.000523781	0.00233693
12.7585	12.6152	0.000109653	0.00299502
12.759	12.6157	9.83816e-05	0.00432315
12.7595	12.6161	-0.00125178	0.0036481
12.7599	12.6166	-0.000274601	0.00272707
12.7604	12.6171	0.000482101	0.00236496
12.7609	12.6176	8.40423e-05	0.00318898
12.7614	12.618	0.000109386	0.00433249
12.7618	12.6185	-0.00116915	0.00362958
12.7623	12.619	-0.000313749	0.00270543
12.7628	12.6194	0.000691501	0.00241413
12.7632	12.6199	6.3104e-05	0.00320299
12.7637	12.6204	6.43703e-05	0.00414223
12.7642	12.6209	-0.00112367	0.00366056
12.7647	12.6214	-0.000264667	0.00262496
12.7651	12.6218	0.000653424	0.00234799
12.7656	12.6223	4.81931e-06	0.00312499
12.7661	12.6228	-1.10538e-05	0.00413648
12.7666	12.6232	-0.00104311	0.00372391
12.767	12.6237	-0.000323219	0.00258244
12.7675	12.6242	0.000701971	0.00251254
12.768	12.6246	3.95619e-05	0.00306942
12.7684	12.6251	-9.72145e-05	0.00424466
12.7689	12.6256	-0.00110933	0.00362942
12.7694	12.6261	-0.000328819	0.00253745
12.7699	12.6266	0.000875826	0.00250025
12.7703	12.627	1.58235e-05	0.00323429
12.7708	12.6275	-0.000200247	0.00428686
12.7713	12.628	-0.00109606	0.00354223
12.7717	12.6285	-0.000412448	0.00243346
12.7722	12.6289	0.00094178	0.00236496
12.7727	12.6294	-1.63865e-05	0.00326527
12.7732	12.6299	-0.000168768	0.0042853
12.7736	12.6303	-0.000956218	0.00349381
12.7741	12.6308	-0.000438255	0.00246411
12.7746	12.6313	0.000857153	0.00253385
12.7751	12.6318	3.0359e-05	0.00340211
12.7755	12.6322	-0.000254465	0.00422957
12.776	12.6327	-0.000900198	0.0035111
12.7765	12.6331	-0.000503941	0.00236136
12.7769	12.6336	0.000881961	0.00252172
12.7774	12.6341	-2.61243e-05	0.00321808
12.7779	12.6346	-0.000292811	0.00410642
12.7784	12.635	-0.000851919	0.00345521
12.7788	12.6355	-0.00055329	0.0024224
12.7793	12.636	0.000991396	0.00251753
12.7798	12.6365	-4.9399e-05	0.0033459
12.7802	12.6369	-0.000235257	0.00413149
12.7807	12.6374	-0.000783897	0.00345365
12.7812	12.6379	-0.000427982	0.00229162
12.7817	12.6384	0.00102234	0.00258448
12.7821	12.6388	-7.57412e-05	0.00332771
12.7826	12.6393	-0.000437987	0.00428374
12.7831	12.6397	-0.000795436	0.00348602
12.7836	12.6402	-0.000445389	0.00236447
12.784	12.6407	0.000875558	0.00258866
12.7845	12.6412	4.18982e-05	0.00336008
12.785	12.6416	-0.000528482	0.00421368
12.7854	12.6421	-0.000748886	0.0034194
12.7859	12.6426	-0.000590369	0.00209905
12.7864	12.643	0.00107549	0.00251114
12.7869	12.6435	-8.56754e-05	0.0032905
12.7873	12.644	-0.000538487	0.00412838
12.7878	12.6444	-0.000732746	0.0035097
12.7883	12.6449	-0.000442321	0.00221705
12.7887	12.6454	0.00104021	0.00270978
12.7892	12.6459	-1.51202e-05	0.00350782
12.7897	12.6463	-0.000583967	0.00412993
12.7902	12.6468	-0.000724613	0.00350938
12.7906	12.6473	-0.000552827	0.00217829
12.7911	12.6478	0.00104481	0.00273067
12.7916	12.6483	6.08561e-06	0.00347701
12.7921	12.6487	-0.000593972	0.0042453
12.7925	12.6492	-0.000722009	0.00346471
12.793	12.6497	-0.000596505	0.0022935
12.7935	12.6501	0.000975791	0.00273706
12.7939	12.6506	-4.9399e-05	0.00349537
12.7944	12.6511	-0.000664991	0.00406487
12.7949	12.6516	-0.00056763	0.0034194
12.7954	12.652	-0.000635385	0.002161
12.7958	12.6525	0.00102414	0.00269937
12.7963	12.653	-5.88693e-05	0.00354256
12.7968	12.6534	-0.00066426	0.00416885
12.7972	12.6539	-0.000480399	0.00345832
12.7977	12.6544	-0.000622579	0.00203334
12.7982	12.6549	0.00105095	0.00272879
12.7987	12.6553	1.70898e-05	0.00358255
12.7991	12.6558	-0.000762156	0.00413772
12.7996	12.6563	-0.00050321	0.00333844
12.8001	12.6568	-0.000562493	0.00214527
12.8006	12.6573	0.00103534	0.00272191
12.801	12.6577	3.5228e-05	0.00370211
12.8015	12.6582	-0.000789764	0.00412714
12.802	12.6587	-0.000376903	0.00328518
12.8024	12.6591	-0.000484002	0.00215821
12.8029	12.6596	0.000962985	0.00272412
12.8034	12.6601	-1.87228e-05	0.00376438
12.8039	12.6605	-0.000856984	0.00404618
12.8043	12.661	-0.000444123	0.00329345
12.8048	12.6615	-0.000481469	0.00221426
12.8053	12.662	0.00107856	0.00259833
12.8057	12.6624	-2.27892e-05	0.003723
12.8062	12.6629	-0.00076756	0.00402873
12.8067	12.6633	-0.000507811	0.00314244
12.8072	12.6638	-0.000451257	0.00212568
12.8076	12.6643	0.000808338	0.00267897
12.8081	12.6648	6.59041e-05	0.00374259
12.8086	12.6652	-0.000983559	0.00394966
12.8091	12.6657	-0.000376635	0.00317464
12.8095	12.6662	-0.000329087	0.00214076
12.81	12.6667	0.000937178	0.00277656
12.8105	12.6671	1.34872e-05	0.00366958
12.8109	12.6676	-0.00101757	0.00396711
12.8114	12.6681	-0.000400445	0.00326838
12.8119	12.6686	-0.000396575	0.00227203
12.8124	12.669	0.000840281	0.00278188
12.8128	12.6695	3.39617e-05	0.00385657
12.8133	12.6699	-0.00103824	0.00398112
12.8138	12.6704	-0.000591368	0.00322044
12.8142	12.6709	-0.000373567	0.00210479
12.8147	12.6714	0.000989863	0.0028004
12.8152	12.6718	9.5314e-05	0.00382387
12.8157	12.6723	-0.00106819	0.0039867
12.8161	12.6728	-0.000341892	0.00315382
12.8166	12.6732	-0.000222987	0.00210061
12.8171	12.6737	0.000810336	0.00286407
12.8176	12.6742	4.2897e-05	0.00385264
12.818	12.6746	-0.001105	0.00391852
12.8185	12.6751	-0.00034776	0.00318914
12.819	12.6756	-0.000148098	0.00217862
12.8194	12.6761	0.000748787	0.00276164
12.8199	12.6766	2.88252e-05	0.00392925
12.8204	12.677	-0.00101984	0.00396834
12.8209	12.6775	-0.000379435	0.00313621
12.8213	12.678	-0.000170035	0.002102
12.8218	12.6785	0.000691769	0.00272895
12.8223	12.6789	4.90322e-05	0.00400882
12.8227	12.6794	-0.00135888	0.00381372
12.8232	12.6799	-0.000373835	0.00299453
12.8237	12.6803	8.20447e-05	0.00215215
12.8242	12.6808	0.000546521	0.00285113
12.8246	12.6813	0.000147463	0.00389189
12.8251	12.6818	-0.0012341	0.003841
12.8256	12.6822	-0.000358497	0.0031689
12.8261	12.6827	-1.84553e-05	0.00205251
12.8265	12.6832	0.000599205	0.00284555
12.827	12.6836	0.000173538	0.00401472
12.8275	12.6841	-0.00125224	0.00382199
12.8279	12.6846	-0.000326287	0.00309294
12.8284	12.6851	-1.6654e-05	0.0020866
12.8289	12.6856	0.000576733	0.0027392
12.8294	12.686	0.000223619	0.00403791
12.8298	12.6865	-0.00139922	0.00377716
12.8303	12.687	-0.000330086	0.00297445
12.8308	12.6875	7.71758e-05	0.00211741
12.8312	12.6879	0.000450694	0.00298551
12.8317	12.6884	0.000371667	0.00405815
12.8322	12.6889	-0.0014215	0.00376455
12.8327	12.6893	-0.000207381	0.00296667
12.8331	12.6898	0.000227756	0.00221829
12.8336	12.6903	0.000346323	0.00299748
12.8341	12.6907	0.000238226	0.00410379
12.8346	12.6912	-0.00131846	0.00385624
12.835	12.6917	-0.000309415	0.00299936
12.8355	12.6922	0.000232358	0.0021456
12.836	12.6926	0.000475234	0.00285892
12.8364	12.6931	0.000246893	0.00422802
12.8369	12.6935	-0.00141229	0.00374586
12.8374	12.694	-0.000303547	0.00284572
12.8379	12.6945	0.00033539	0.00215461
12.8383	12.695	0.000405411	0.00301493
12.8388	12.6954	0.000282171	0.00423129
12.8393	12.6959	-0.00136681	0.00366974
12.8397	12.6964	-0.000289672	0.00286982
12.8402	12.6969	0.000250496	0.00230284
12.8407	12.6973	0.000343791	0.00299969
12.8412	12.6978	0.000178407	0.00418738
12.8416	12.6983	-0.00144351	0.00371113
12.8421	12.6988	-0.000407846	0.00283637
12.8426	12.6992	0.000349926	0.00224352
12.8431	12.6997	0.000246626	0.002962
12.8435	12.7001	0.000312383	0.00426522
12.844	12.7006	-0.00125684	0.003659
12.8445	12.7011	-0.000272871	0.00277501
12.8449	12.7016	0.000425618	0.00222999
12.8454	12.702	0.000176338	0.00298584
12.8459	12.7025	0.000238493	0.00430833
12.8464	12.703	-0.00135708	0.00366367
12.8468	12.7034	-0.00021505	0.00280196
12.8473	12.7039	0.000481637	0.00230768
12.8478	12.7044	0.000207817	0.00308139
12.8482	12.7049	0.000345325	0.00417696
12.8487	12.7054	-0.00136348	0.00362475
12.8492	12.7058	-0.000344425	0.00285285
12.8497	12.7063	0.000459361	0.00229474
12.8501	12.7068	0.000233892	0.00305042
12.8506	12.7073	0.000160465	0.00430291
12.8511	12.7078	-0.0013144	0.00365884
12.8516	12.7082	-0.000326019	0.00260595
12.852	12.7087	0.000614543	0.00240248
12.8525	12.7092	0.000117055	0.00308483
12.853	12.7096	0.000132589	0.00422925
12.8534	12.7101	-0.00111754	0.00370882
12.8539	12.7106	-0.000232992	0.00256891
12.8544	12.7111	0.000589468	0.00240372
12.8549	12.7115	0.000101182	0.00308172
12.8553	12.712	0.000139794	0.00419639
12.8558	12.7125	-0.00114821	0.00362164
12.8563	12.7129	-0.000310414	0.00269749
12.8567	12.7134	0.000641885	0.00234504
12.8572	12.7139	0.00012212	0.00322356
12.8577	12.7143	0.00014486	0.00428267
12.8582	12.7148	-0.00117275	0.00355501
12.8586	12.7153	-0.000413714	0.00259505
12.8591	12.7158	0.000771259	0.002343
12.8596	12.7163	4.28431e-06	0.00308918
12.8601	12.7167	7.5107e-05	0.0042453
12.8605	12.7172	-0.00104464	0.0035388
12.861	12.7177	-0.000456928	0.00249434
12.8615	12.7182	0.0007958	0.00228556
12.8619	12.7186	6.74379e-05	0.00324986
12.8624	12.7191	-8.4409e-05	0.00429652
12.8629	12.7195	-0.00106872	0.00364467
12.8634	12.72	-0.000368163	0.00250492
12.8638	12.7205	0.000771723	0.0024274
12.8643	12.721	-1.10538e-05	0.00333517
12.8648	12.7214	-9.59482e-05	0.00429743
12.8652	12.7219	-0.000941611	0.00355453
12.8657	12.7224	-0.000424183	0.00256531
12.8662	12.7228	0.000935377	0.00257374
12.8667	12.7233	4.03644e-05	0.0032075
12.8671	12.7237	-0.000210716	0.00418099
12.8676	12.7242	-0.00102831	0.00359296
12.8681	12.7247	-0.000325217	0.00247582
12.8686	12.7252	0.000823676	0.00247641
12.869	12.7257	5.85026e-05	0.00339154
12.8695	12.7261	-0.000282341	0.00424433
12.87	12.7266	-0.000855254	0.00355404
12.8704	12.7271	-0.000451328	0.00238938
12.8709	12.7276	0.000867889	0.00251114
12.8714	12.728	6.49053e-05	0.00331992
12.8719	12.7285	-0.000307079	0.00425341
12.8723	12.729	-0.000826308	0.0035315
12.8728	12.7294	-0.000552024	0.00232963
12.8733	12.7299	0.000980927	0.0025826
12.8737	12.7304	3.11615e-05	0.00336196
12.8742	12.7308	-0.000292811	0.00424793
12.8747	12.7313	-0.000733281	0.0035061
12.8752	12.7318	-0.000438986	0.00233071
12.8756	12.7323	0.000915972	0.00251753
12.8761	12.7327	2.50263e-05	0.00324798
12.8766	12.7332	-0.000365898	0.00420794
12.8771	12.7337	-0.000749154	0.00365417
12.8775	12.7341	-0.000513144	0.00228899
12.878	12.7346	0.00094458	0.00251877
12.8785	12.7351	3.21603e-05	0.00336008
12.8789	12.7356	-0.000452059	0.00412698
12.8794	12.7361	-0.000848851	0.00340072
12.8799	12.7366	-0.000530016	0.00230129
12.8804	12.737	0.00111924	0.00250803
12.8808	12.7375	-9.33444e-05	0.00343325
12.8813	12.738	-0.000494738	0.00422211
12.8818	12.7385	-0.00072101	0.0035002
12.8822	12.7389	-0.000485803	0.00220304
12.8827	12.7394	0.00117139	0.00273034
12.8832	12.7399	2.17883e-07	0.00329624
12.8837	12.7403	-0.000494007	0.00416075
12.8841	12.7408	-0.000765223	0.00348431
12.8846	12.7413	-0.000578099	0.00211585
12.8851	12.7418	0.00102741	0.00260907
12.8856	12.7422	9.15323e-06	0.00350283
12.886	12.7427	-0.000478401	0.00407855
12.8865	12.7431	-0.000674461	0.00334
12.887	12.7436	-0.000591368	0.00226671
12.8874	12.7441	0.00111997	0.0026125
12.8879	12.7446	-5.24666e-05	0.0035505
12.8884	12.745	-0.000642786	0.00401456
12.8889	12.7455	-0.000577831	0.00348881
12.8893	12.746	-0.000627716	0.0021719
12.8898	12.7465	0.000913903	0.00268519
12.8903	12.7469	6.82404e-05	0.00353429
12.8907	12.7474	-0.000615178	0.00410175
12.8912	12.7479	-0.000493472	0.00345161
12.8917	12.7484	-0.000609577	0.00219214
12.8922	12.7488	0.00105942	0.00273534
12.8926	12.7493	-1.20526e-05	0.00352478
12.8931	12.7498	-0.000736884	0.00412682
12.8936	12.7502	-0.000443855	0.00338606
12.8941	12.7507	-0.000534082	0.00209143
12.8945	12.7512	0.00099293	0.002721
12.895	12.7517	1.19533e-05	0.00364278
12.8955	12.7521	-0.000842716	0.0040938
12.8959	12.7526	-0.000547958	0.00337269
12.8964	12.753	-0.000492669	0.00212708
12.8969	12.7535	0.000970922	0.0027632
12.8974	12.754	-7.98616e-06	0.00363205
12.8978	12.7544	-0.000813841	0.00411608
12.8983	12.7549	-0.000510344	0.00329641
12.8988	12.7554	-0.000453325	0.00213207
