# 1304     AichiSR QXAFS
# Start     : 8.9544
# End       : 9.0544
# Dir       : Forward
# Points    : 300
# ScanTime  : 1.01549
# Date      : 13.04.23 23:15
# Ring Cur. : 0.9[mA]
12.7557	12.7562	-0.000812575	0.00347045
12.7562	12.7557	-0.000629981	0.00225114
12.7566	12.7552	0.000929509	0.00263677
12.7571	12.7547	-0.000172371	0.00352028
12.7576	12.7543	-0.000588835	0.00411732
12.7581	12.7538	-0.000719744	0.00342702
12.7585	12.7533	-0.000627448	0.00215494
12.759	12.7529	0.000999065	0.0026788
12.7595	12.7524	-7.93438e-05	0.00347029
12.7599	12.7519	-0.000730481	0.00422507
12.7604	12.7515	-0.000723079	0.0033881
12.7609	12.751	-0.000634315	0.00216879
12.7614	12.7505	0.00104428	0.00259317
12.7618	12.75	-5.86018e-05	0.00351839
12.7623	12.7496	-0.000731212	0.0041047
12.7628	12.7491	-0.000658659	0.00348463
12.7632	12.7487	-0.00074375	0.00212724
12.7637	12.7482	0.0010016	0.00267274
12.7642	12.7477	-8.46765e-05	0.00351839
12.7647	12.7472	-0.000765223	0.00413009
12.7651	12.7468	-0.000655057	0.00348619
12.7656	12.7463	-0.000579633	0.00213142
12.7661	12.7458	0.000962718	0.00263103
12.7666	12.7453	-0.000163971	0.00358583
12.767	12.7449	-0.000921939	0.0041827
12.7675	12.7444	-0.00065379	0.00350159
12.768	12.7439	-0.00055329	0.00218248
12.7684	12.7434	0.00097679	0.00272691
12.7689	12.743	-0.000163168	0.00353273
12.7694	12.7425	-0.000859856	0.00406003
12.7699	12.742	-0.000663992	0.00333968
12.7703	12.7416	-0.00067653	0.00210512
12.7708	12.7411	0.000941512	0.00287653
12.7713	12.7406	4.82297e-05	0.00374463
12.7717	12.7401	-0.000794633	0.00408011
12.7722	12.7397	-0.000499607	0.00340023
12.7727	12.7392	-0.000607241	0.00203645
12.7732	12.7388	0.000965518	0.00275477
12.7736	12.7383	-3.65223e-06	0.0037303
12.7741	12.7378	-0.00100963	0.00407995
12.7746	12.7373	-0.000520813	0.00326978
12.7751	12.7369	-0.000590102	0.00204349
12.7755	12.7364	0.000822143	0.00276631
12.776	12.7359	-0.000125626	0.00366228
12.7765	12.7354	-0.0011188	0.00405799
12.7769	12.7349	-0.000520813	0.00312252
12.7774	12.7345	-0.000469198	0.00222467
12.7779	12.734	0.000851552	0.00275616
12.7784	12.7335	1.34872e-05	0.00374463
12.7788	12.733	-0.00118602	0.00404602
12.7793	12.7326	-0.000422649	0.00323413
12.7798	12.7321	-0.000337291	0.00217813
12.7802	12.7316	0.000745185	0.00287186
12.7807	12.7312	-3.38473e-06	0.00375504
12.7812	12.7307	-0.00102064	0.00410518
12.7817	12.7302	-0.000451524	0.0032715
12.7821	12.7297	-0.000429587	0.00207726
12.7826	12.7293	0.000721643	0.00290144
12.7831	12.7288	-2.61243e-05	0.00396646
12.7836	12.7283	-0.00127045	0.00396785
12.784	12.7279	-0.000357694	0.00316439
12.7845	12.7274	-0.000336489	0.00211027
12.785	12.7269	0.000628348	0.00271928
12.7854	12.7264	3.11615e-05	0.00377061
12.7859	12.726	-0.00116888	0.00388115
12.7864	12.7255	-0.00033162	0.00328723
12.7869	12.725	-0.000272604	0.00203382
12.7873	12.7245	0.000591536	0.00279262
12.7878	12.7241	-5.86018e-05	0.00377061
12.7883	12.7236	-0.00124638	0.00388894
12.7887	12.7231	-0.00038664	0.00307205
12.7892	12.7227	-0.000212518	0.00216256
12.7897	12.7222	0.000548322	0.00272116
12.7902	12.7217	-6.44695e-05	0.00396195
12.7906	12.7213	-0.00137548	0.00390966
12.7911	12.7208	-0.000261599	0.00312547
12.7916	12.7203	-0.000232992	0.00219976
12.7921	12.7198	0.000575396	0.00282548
12.7925	12.7194	9.22463e-05	0.00390713
12.793	12.7189	-0.00120163	0.00401005
12.7935	12.7185	-0.00040938	0.00314711
12.7939	12.718	-0.00014503	0.00220632
12.7944	12.7175	0.000559861	0.00283809
12.7949	12.717	8.15097e-05	0.00401644
12.7954	12.7166	-0.00130366	0.00388845
12.7958	12.7161	-0.000387104	0.0031004
12.7963	12.7156	-0.000131761	0.00211709
12.7968	12.7151	0.000423816	0.00278532
12.7972	12.7146	9.01775e-05	0.00407839
12.7977	12.7142	-0.00143277	0.00371161
12.7982	12.7137	-0.000432851	0.00309433
12.7987	12.7132	-2.27892e-05	0.00213781
12.7991	12.7128	0.000342257	0.00285162
12.7996	12.7123	2.47588e-05	0.00413772
12.8001	12.7118	-0.00144504	0.00387197
12.8006	12.7114	-0.000495273	0.00308327
12.801	12.7109	2.47588e-05	0.00228105
12.8015	12.7104	0.000350194	0.00289022
12.802	12.7099	0.000137726	0.00410797
12.8024	12.7095	-0.00144577	0.00382789
12.8029	12.709	-0.000296075	0.00295765
12.8034	12.7085	0.000169472	0.00215945
12.8039	12.7081	0.000372933	0.00285301
12.8043	12.7076	0.000121389	0.00414969
12.8048	12.7071	-0.00151073	0.00376922
12.8053	12.7066	-0.000470197	0.00201219
12.8057	12.7062	0.000107852	0.00235545
12.8062	12.7057	0.00023102	0.00288915
12.8067	12.7052	0.000134194	0.00418131
12.8072	12.7047	-0.00150839	0.00377233
12.8076	12.7042	-0.000297608	0.00293258
12.8081	12.7037	0.000250229	0.00229785
12.8086	12.7033	0.000346858	0.00287342
12.8091	12.7028	0.000136727	0.00413665
12.8095	12.7023	-0.00144351	0.00365712
12.81	12.7019	-0.000398376	0.00290643
12.8105	12.7014	0.000244361	0.00228539
12.8109	12.7009	0.000210082	0.00301649
12.8114	12.7005	0.000175072	0.00400243
12.8119	12.7	-0.00149025	0.00364016
12.8124	12.6995	-0.000264667	0.00286407
12.8128	12.6991	0.000202948	0.00222467
12.8133	12.6986	0.000165869	0.0028907
12.8138	12.6981	0.000204946	0.00411624
12.8142	12.6977	-0.00147265	0.003699
12.8147	12.6972	-0.000260066	0.00273518
12.8152	12.6967	0.000336389	0.00221206
12.8157	12.6962	9.50465e-05	0.00303657
12.8161	12.6958	0.000144931	0.00414378
12.8166	12.6953	-0.00149232	0.00367687
12.8171	12.6948	-0.00034669	0.00281286
12.8176	12.6943	0.000439689	0.00229941
12.818	12.6939	0.000155132	0.00299534
12.8185	12.6934	0.000126989	0.00420794
12.819	12.6929	-0.00139669	0.00361557
12.8194	12.6925	-0.000471999	0.00276148
12.8199	12.692	0.000387005	0.00217035
12.8204	12.6915	0.000110117	0.00300264
12.8209	12.6911	0.000105783	0.0041178
12.8213	12.6906	-0.0014131	0.00355453
12.8218	12.6901	-0.000436186	0.00262292
12.8223	12.6896	0.000434285	0.00215838
12.8227	12.6892	1.22208e-05	0.00311237
12.8232	12.6887	7.25743e-05	0.00419672
12.8237	12.6883	-0.00137629	0.00363082
12.8242	12.6878	-0.000357694	0.00259055
12.8246	12.6873	0.00048137	0.0023044
12.8251	12.6868	0.000102448	0.00311194
12.8256	12.6864	-9.20781e-05	0.00428981
12.8261	12.6859	-0.00135961	0.00355437
12.8265	12.6854	-0.000519547	0.0025767
12.827	12.6849	0.00054472	0.00232915
12.8275	12.6844	-0.000113819	0.00309106
12.8279	12.6839	-8.67453e-05	0.00424547
12.8284	12.6835	-0.00129952	0.00351512
12.8289	12.683	-0.000469198	0.00267413
12.8294	12.6825	0.000569332	0.00237537
12.8298	12.6821	1.21669e-06	0.00309868
12.8303	12.6816	-0.000100817	0.00416451
12.8308	12.6811	-0.00124691	0.00346702
12.8312	12.6807	-0.000376171	0.00257014
12.8317	12.6802	0.000572863	0.00241478
12.8322	12.6797	-4.91854e-06	0.00311178
12.8327	12.6792	-9.05443e-05	0.00420901
12.8331	12.6788	-0.00123104	0.0036677
12.8336	12.6783	-0.000483003	0.0025105
12.8341	12.6778	0.000600739	0.00243657
12.8346	12.6774	1.91586e-05	0.00320971
12.835	12.6769	-0.000187174	0.00416746
12.8355	12.6764	-0.00121317	0.00349381
12.836	12.6759	-0.000430051	0.00255801
12.8364	12.6754	0.000672561	0.00245558
12.8369	12.675	-0.000146296	0.00311285
12.8374	12.6745	-0.000246796	0.00415796
12.8379	12.674	-0.00105285	0.00365744
12.8383	12.6735	-0.000454592	0.00228711
12.8388	12.6731	0.000647021	0.00248001
12.8393	12.6726	1.65548e-05	0.00323789
12.8397	12.6721	-0.000294541	0.00420729
12.8402	12.6717	-0.00104645	0.0035687
12.8407	12.6712	-0.000478134	0.00247845
12.8412	12.6707	0.000739049	0.00253622
12.8416	12.6702	-7.60087e-05	0.00316128
12.8421	12.6698	-0.000315283	0.00424793
12.8426	12.6693	-0.00105465	0.00358411
12.8431	12.6689	-0.000479668	0.00236496
12.8435	12.6684	0.000819342	0.00252032
12.844	12.6679	-7.70075e-05	0.00335213
12.8445	12.6675	-0.000367967	0.00422163
12.8449	12.667	-0.000885395	0.00341301
12.8454	12.6665	-0.000526217	0.00230112
12.8459	12.666	0.000826209	0.00262587
12.8464	12.6656	4.2362e-05	0.0033028
12.8468	12.6651	-0.000490672	0.00413632
12.8473	12.6646	-0.000908866	0.00348619
12.8478	12.6641	-0.000419849	0.00236619
12.8482	12.6637	0.000818272	0.00256719
12.8487	12.6632	-0.000156498	0.0033386
12.8492	12.6627	-0.000486802	0.00423204
12.8497	12.6623	-0.000914003	0.00354953
12.8501	12.6618	-0.000443124	0.00230129
12.8506	12.6613	0.000936179	0.0026715
12.8511	12.6609	-5.12003e-05	0.00347577
12.8516	12.6604	-0.000563492	0.00423269
12.852	12.6599	-0.000871859	0.00350159
12.8525	12.6594	-0.000592171	0.00227482
12.853	12.659	0.00105455	0.00264209
12.8534	12.6585	-0.000136826	0.00338515
12.8539	12.658	-0.00059704	0.00427891
12.8544	12.6576	-0.000753488	0.00345832
12.8549	12.6571	-0.000537221	0.00219091
12.8553	12.6566	0.00100467	0.00256096
12.8558	12.6561	-0.000109752	0.00327289
12.8563	12.6557	-0.000573497	0.00420901
12.8567	12.6552	-0.000788498	0.00355797
12.8572	12.6547	-0.000615445	0.00222344
12.8577	12.6542	0.000928778	0.00272707
12.8582	12.6537	1.34872e-05	0.00346734
12.8586	12.6533	-0.000806904	0.00409568
12.8591	12.6528	-0.000750688	0.0034929
12.8596	12.6523	-0.000550223	0.00229162
12.8601	12.6519	0.00103714	0.0027691
12.8605	12.6514	-0.000183375	0.0034471
12.861	12.6509	-0.000743286	0.00416778
12.8615	12.6504	-0.000706404	0.00333189
12.8619	12.65	-0.000645586	0.00221115
12.8624	12.6495	0.000953319	0.00264332
12.8629	12.649	-0.00014116	0.00361229
12.8634	12.6486	-0.000767025	0.00415812
12.8638	12.6481	-0.00071154	0.00347062
12.8643	12.6476	-0.00059984	0.00214887
12.8648	12.6471	0.000899832	0.00275165
12.8652	12.6467	-0.000152432	0.00352339
12.8657	12.6462	-0.000835047	0.00410223
12.8662	12.6457	-0.000596237	0.00339261
12.8667	12.6452	-0.00070207	0.00218436
12.8671	12.6447	0.00089243	0.00270559
12.8676	12.6443	-0.00011562	0.00360902
12.8681	12.6438	-0.000845784	0.00408462
12.8686	12.6433	-0.000545354	0.00332304
12.869	12.6429	-0.000616444	0.00220959
12.8695	12.6424	0.000960185	0.00276304
12.87	12.6419	-0.000151629	0.00356494
12.8704	12.6415	-0.0010089	0.00409101
12.8709	12.641	-0.000623382	0.00337532
12.8714	12.6405	-0.000548421	0.00207103
12.8719	12.64	0.000831078	0.00278016
12.8723	12.6396	-2.05241e-05	0.00373169
12.8728	12.6391	-0.000936011	0.00407872
12.8733	12.6387	-0.0005827	0.00324814
12.8737	12.6382	-0.000550223	0.00222188
12.8742	12.6377	0.000962522	0.00278655
12.8747	12.6372	-3.37934e-05	0.00360779
12.8752	12.6368	-0.00107866	0.00412649
12.8756	12.6363	-0.000567362	0.00327928
12.8761	12.6358	-0.000471196	0.00211462
12.8766	12.6353	0.000844347	0.00282671
12.8771	12.6349	-7.42074e-05	0.00378446
12.8775	12.6344	-0.00111853	0.00400243
12.878	12.6339	-0.000425984	0.00322946
12.8785	12.6334	-0.000626646	0.00201981
12.8789	12.633	0.000845417	0.00282483
12.8794	12.6325	-8.16089e-05	0.00379847
12.8799	12.6321	-0.00111393	0.00397719
12.8804	12.6316	-0.000514214	0.0032243
12.8808	12.6311	-0.000490404	0.0021646
12.8813	12.6306	0.000715775	0.00274296
12.8818	12.6302	-3.91973e-06	0.00375161
12.8822	12.6297	-0.00104211	0.0039699
12.8827	12.6292	-0.000439789	0.00318324
12.8832	12.6288	-0.000384037	0.0022068
12.8837	12.6283	0.000635285	0.00272862
12.8841	12.6278	1.78211e-05	0.00385018
12.8846	12.6273	-0.00118629	0.00399481
12.8851	12.6269	-0.000437987	0.00304263
12.8856	12.6264	-0.000491938	0.00213797
12.886	12.6259	0.000616345	0.00276459
12.8865	12.6254	-9.97471e-05	0.00388287
12.887	12.6249	-0.00118269	0.00401832
12.8874	12.6245	-0.00042165	0.00309482
12.8879	12.624	-0.000377438	0.00213781
12.8884	12.6235	0.000608141	0.00277361
12.8889	12.623	9.50465e-05	0.00377824
12.8893	12.6226	-0.00127985	0.00390746
12.8898	12.6221	-0.000373567	0.00307721
12.8903	12.6216	-0.000189974	0.00209857
12.8907	12.6212	0.000625548	0.00277844
12.8912	12.6207	-4.91854e-06	0.00394917
12.8917	12.6202	-0.00134527	0.00379724
12.8922	12.6197	-0.000387639	0.0030713
12.8926	12.6193	-0.000233723	0.0022141
12.8931	12.6188	0.000484437	0.00292184
12.8936	12.6183	-2.25217e-05	0.00405332
12.8941	12.6179	-0.00117502	0.00388942
12.8945	12.6174	-0.000392704	0.00303099
12.895	12.6169	-0.000252397	0.00211446
12.8955	12.6164	0.00049924	0.00277984
12.8959	12.616	5.51675e-05	0.00402234
12.8964	12.6155	-0.00134841	0.00372112
12.8969	12.615	-0.000346958	0.00305541
12.8974	12.6145	-7.95401e-05	0.00216691
12.8978	12.6141	0.000460628	0.00286128
12.8983	12.6136	0.000155864	0.00407093
12.8988	12.6131	-0.00155494	0.00371768
