# 1304     AichiSR QXAFS
# Start     : 8.9544
# End       : 9.0544
# Dir       : Forward
# Points    : 300
# ScanTime  : 1.01549
# Date      : 13.04.23 23:34
# Ring Cur. : 1[mA]
12.7557	12.7562	0.00064522	0.00272535
12.7562	12.7557	2.269e-05	0.00400587
12.7566	12.7553	-0.00136935	0.0038614
12.7571	12.7548	-0.000331352	0.00316702
12.7576	12.7543	-8.31427e-05	0.00216895
12.7581	12.7538	0.000508711	0.00292463
12.7585	12.7534	8.45773e-05	0.00401316
12.759	12.7529	-0.00148005	0.00392442
12.7595	12.7525	-0.00039991	0.00315645
12.7599	12.752	-0.000113355	0.00209561
12.7604	12.7515	0.000479033	0.00289226
12.7609	12.7511	0.000136727	0.00396941
12.7614	12.7506	-0.00146344	0.00375193
12.7618	12.7501	-0.000354894	0.00303378
12.7623	12.7496	-7.08723e-05	0.00220632
12.7628	12.7492	0.000361465	0.00289849
12.7632	12.7487	5.12973e-05	0.00410191
12.7637	12.7483	-0.00146064	0.00377733
12.7642	12.7478	-0.0003705	0.00292184
12.7647	12.7473	6.28365e-05	0.00225302
12.7651	12.7468	0.000325653	0.0029547
12.7656	12.7464	0.000113452	0.00415157
12.7661	12.7459	-0.00149285	0.00368686
12.7666	12.7454	-0.000465132	0.00296339
12.767	12.7449	5.95014e-05	0.00224835
12.7675	12.7444	0.000282171	0.00284104
12.768	12.744	0.000128523	0.00421835
12.7684	12.7435	-0.00146931	0.00379037
12.7689	12.743	-0.000394309	0.0028499
12.7694	12.7426	5.15648e-05	0.00224057
12.7699	12.7421	0.000273503	0.00299051
12.7703	12.7416	0.000257898	0.00419548
12.7708	12.7412	-0.00155727	0.00369309
12.7713	12.7407	-0.000459728	0.00290611
12.7717	12.7402	0.000196278	0.00238815
12.7722	12.7397	0.000157933	0.00295421
12.7727	12.7393	0.000103982	0.00427751
12.7732	12.7388	-0.00151479	0.00372439
12.7736	12.7384	-0.000422649	0.0027895
12.7741	12.7379	0.000170738	0.00232276
12.7746	12.7374	0.000175339	0.00300698
12.7751	12.7369	0.000151797	0.00418303
12.7755	12.7364	-0.00139956	0.00372079
12.776	12.736	-0.000412448	0.00275837
12.7765	12.7355	0.000282974	0.00224991
12.7769	12.735	9.50465e-05	0.00299781
12.7774	12.7345	0.000195546	0.00432127
12.7779	12.734	-0.00130106	0.00369621
12.7784	12.7336	-0.000298946	0.00286595
12.7788	12.7331	0.000328988	0.00223155
12.7793	12.7326	0.000132393	0.00299936
12.7798	12.7322	0.000112186	0.00430619
12.7802	12.7317	-0.00130006	0.00360591
12.7807	12.7312	-0.000420652	0.00274591
12.7812	12.7307	0.000450426	0.00243469
12.7817	12.7303	2.88252e-05	0.00317513
12.7821	12.7298	0.000153866	0.00425448
12.7826	12.7293	-0.00146344	0.00378151
12.7831	12.7289	-0.000429783	0.00263586
12.7836	12.7284	0.00046143	0.0023911
12.784	12.7279	5.23673e-05	0.00312096
12.7845	12.7275	7.61942e-06	0.00433233
12.785	12.727	-0.00137422	0.00364483
12.7854	12.7265	-0.000487337	0.00256875
12.7859	12.726	0.000508176	0.00234955
12.7864	12.7256	1.24883e-05	0.00316456
12.7869	12.7251	-2.15229e-05	0.00427816
12.7873	12.7246	-0.00115201	0.00352323
12.7878	12.7241	-0.000363633	0.00266168
12.7883	12.7236	0.000597939	0.00238987
12.7887	12.7232	-4.8864e-05	0.00306926
12.7892	12.7227	-0.000109752	0.00422662
12.7897	12.7223	-0.00125811	0.00354986
12.7902	12.7218	-0.000443855	0.00253901
12.7906	12.7213	0.000690966	0.00235078
12.7911	12.7209	8.73774e-05	0.00326575
12.7916	12.7204	-0.000165968	0.00433405
12.7921	12.7199	-0.00117709	0.0035964
12.7925	12.7194	-0.00051828	0.00260112
12.793	12.719	0.000684831	0.00250164
12.7935	12.7185	-0.000102815	0.00328223
12.7939	12.7181	-0.000187709	0.00434118
12.7944	12.7176	-0.00112647	0.00359173
12.7949	12.7171	-0.000485535	0.00255458
12.7954	12.7166	0.000746718	0.00255629
12.7958	12.7162	1.1222e-05	0.00336335
12.7963	12.7157	-0.000298678	0.00431767
12.7968	12.7152	-0.00112674	0.00355952
12.7972	12.7147	-0.000487337	0.00244157
12.7977	12.7142	0.00085462	0.00249885
12.7982	12.7138	-8.16089e-05	0.0032905
12.7987	12.7133	-0.000372034	0.00431816
12.7991	12.7128	-0.000983827	0.00361148
12.7996	12.7124	-0.000398911	0.0024596
12.8001	12.7119	0.000879625	0.00256252
12.8006	12.7114	-9.33444e-05	0.00336974
12.801	12.711	-0.000220918	0.00426571
12.8015	12.7105	-0.00109146	0.00360779
12.802	12.71	-0.000544088	0.00240683
12.8024	12.7095	0.000920306	0.00262898
12.8029	12.7091	-0.000110751	0.00329968
12.8034	12.7086	-0.000393774	0.00424047
12.8039	12.7081	-0.000951349	0.00353692
12.8043	12.7077	-0.000562493	0.00231981
12.8048	12.7072	0.000897299	0.00264053
12.8053	12.7067	-9.26131e-05	0.00341408
12.8057	12.7062	-0.000458729	0.00421057
12.8062	12.7057	-0.000977691	0.00356822
12.8067	12.7053	-0.000663992	0.00245354
12.8072	12.7048	0.000853354	0.00265094
12.8076	12.7043	-1.91866e-05	0.00338032
12.8081	12.7038	-0.000609774	0.0043479
12.8086	12.7033	-0.000828644	0.00352216
12.8091	12.7029	-0.000624113	0.00228744
12.8095	12.7024	0.000840281	0.00275788
12.81	12.7019	-0.000166771	0.00345972
12.8105	12.7015	-0.00063765	0.00416869
12.8109	12.701	-0.00080257	0.00354953
12.8114	12.7005	-0.000562761	0.00218796
12.8119	12.7	0.000942047	0.00261653
12.8124	12.6996	-9.6947e-05	0.00351995
12.8128	12.6991	-0.000645854	0.00413353
12.8133	12.6987	-0.000724078	0.00344227
12.8138	12.6982	-0.000709007	0.00222811
12.8142	12.6977	0.000935644	0.00268643
12.8147	12.6973	-2.58568e-05	0.00358459
12.8152	12.6968	-0.000768291	0.00422318
12.8157	12.6963	-0.000702605	0.00351716
12.8161	12.6958	-0.000653255	0.00231497
12.8166	12.6953	0.00098906	0.00269174
12.8171	12.6949	-0.000121488	0.00360623
12.8176	12.6944	-0.000849315	0.0042045
12.818	12.6939	-0.000592438	0.00341973
12.8185	12.6935	-0.000748084	0.00213126
12.819	12.693	0.000804004	0.00274714
12.8194	12.6925	-0.000104616	0.00364155
12.8199	12.6921	-0.000908135	0.00418705
12.8204	12.6916	-0.000705137	0.00341285
12.8209	12.6911	-0.000653255	0.00226794
12.8213	12.6906	0.000923374	0.00278016
12.8218	12.6902	-0.000157764	0.00358427
12.8223	12.6897	-0.000908937	0.00417245
12.8227	12.6893	-0.000598573	0.00335713
12.8232	12.6888	-0.000578099	0.00232496
12.8237	12.6883	0.000810407	0.00275493
12.8242	12.6879	-4.96168e-08	0.00374463
12.8246	12.6874	-0.00100737	0.00418475
12.8251	12.6869	-0.000593972	0.00331058
12.8256	12.6864	-0.000629981	0.00220615
12.8261	12.6859	0.000929242	0.00292758
12.8265	12.6855	-4.40662e-05	0.00376143
12.827	12.685	-0.00100323	0.0041251
12.8275	12.6845	-0.000456928	0.00323896
12.8279	12.684	-0.000575299	0.00216224
12.8284	12.6835	0.000729847	0.00273952
12.8289	12.6831	-1.38539e-05	0.00379659
12.8294	12.6826	-0.00107919	0.00405037
12.8298	12.6821	-0.000518548	0.00327724
12.8303	12.6817	-0.000506474	0.00227433
12.8308	12.6812	0.000763055	0.00278967
12.8312	12.6807	-5.73355e-05	0.00389516
12.8317	12.6802	-0.00114768	0.00408027
12.8322	12.6798	-0.000410914	0.00322635
12.8327	12.6793	-0.000470465	0.00221968
12.8331	12.6788	0.000737248	0.00290783
12.8336	12.6784	-8.4944e-05	0.00376267
12.8341	12.6779	-0.00117429	0.00391106
12.8346	12.6774	-0.000560424	0.00310818
12.835	12.6769	-0.000380969	0.00212224
12.8355	12.6765	0.000738514	0.00283777
12.836	12.676	-3.83948e-05	0.00396179
12.8364	12.6755	-0.00114641	0.00396818
12.8369	12.675	-0.000541555	0.00315505
12.8374	12.6745	-0.000329354	0.00229973
12.8379	12.6741	0.00071911	0.00276771
12.8383	12.6736	-3.17116e-07	0.00393081
12.8388	12.6731	-0.00117735	0.00394531
12.8393	12.6727	-0.000271534	0.00319365
12.8397	12.6722	-0.000276135	0.00222156
12.8402	12.6717	0.000520179	0.00291578
12.8407	12.6713	2.57576e-05	0.00405708
12.8412	12.6708	-0.00134581	0.00394064
12.8416	12.6703	-0.000392972	0.00311908
12.8421	12.6698	-0.000249596	0.00217485
12.8426	12.6694	0.000437888	0.00292447
12.8431	12.6689	7.05055e-05	0.00403169
12.8435	12.6685	-0.00138722	0.00387509
12.844	12.668	-0.000350025	0.00316112
12.8445	12.6675	-0.000192311	0.00212224
12.8449	12.667	0.000514311	0.00284228
12.8454	12.6666	9.68478e-05	0.00405069
12.8459	12.6661	-0.00143304	0.0039299
12.8464	12.6656	-0.000273335	0.00300108
12.8468	12.6651	-0.000139894	0.00215961
12.8473	12.6647	0.000429684	0.00285785
12.8478	12.6642	7.94409e-05	0.00416542
12.8482	12.6637	-0.00143043	0.00388861
12.8487	12.6633	-0.000472801	0.00307597
12.8492	12.6628	-3.81273e-05	0.00230719
12.8497	12.6623	0.000403609	0.00290922
12.8501	12.6619	3.67618e-05	0.00408215
12.8506	12.6614	-0.00138189	0.00386091
12.8511	12.6609	-0.000290207	0.00298691
12.8516	12.6604	3.0894e-05	0.00226703
12.852	12.66	0.000280905	0.0028812
12.8525	12.6595	7.28418e-05	0.00412166
12.853	12.659	-0.00134481	0.00374914
12.8534	12.6586	-0.000307079	0.00295158
12.8539	12.6581	6.53691e-05	0.00217411
12.8544	12.6576	0.000366334	0.00286424
12.8549	12.6571	0.000115521	0.00419844
12.8553	12.6567	-0.00145497	0.00368203
12.8558	12.6562	-0.000349758	0.00288136
12.8563	12.6557	2.36888e-05	0.00237242
12.8567	12.6552	0.00027757	0.00297633
12.8572	12.6548	0.000270168	0.00420499
12.8577	12.6543	-0.00145371	0.0037085
12.8582	12.6538	-0.00040271	0.00293413
12.8586	12.6533	0.000270168	0.00227047
12.8591	12.6529	0.00016487	0.00304017
12.8596	12.6524	0.000163069	0.00427145
12.8601	12.6519	-0.00156694	0.00368547
12.8605	12.6515	-0.000424986	0.00292963
12.861	12.651	0.000374734	0.00224368
12.8615	12.6505	0.000194744	0.00304484
12.8619	12.65	0.000165067	0.00433512
12.8624	12.6496	-0.0014225	0.00376889
12.8629	12.6491	-0.000377901	0.00282671
12.8634	12.6486	0.000422818	0.00230112
12.8638	12.6482	0.000142327	0.00298879
12.8643	12.6477	0.000191944	0.00415452
12.8648	12.6472	-0.00146805	0.00365744
12.8652	12.6467	-0.000425984	0.00279122
12.8657	12.6462	0.000344058	0.00233849
12.8662	12.6458	6.59041e-05	0.00308016
12.8667	12.6453	9.71153e-05	0.00432422
12.8671	12.6448	-0.00129599	0.00377094
12.8676	12.6443	-0.000446191	0.00267011
12.8681	12.6439	0.000394674	0.00223074
12.8686	12.6434	0.000124991	0.00318587
12.869	12.6429	-8.56754e-05	0.00440174
12.8695	12.6425	-0.00133867	0.0037348
12.87	12.642	-0.000448724	0.00272116
12.8704	12.6415	0.000502308	0.00236029
12.8709	12.6411	7.35732e-05	0.00318807
12.8714	12.6406	7.17718e-05	0.00422941
12.8719	12.6401	-0.00131106	0.00365884
12.8723	12.6397	-0.000477599	0.0026525
12.8728	12.6392	0.000420214	0.0023961
12.8733	12.6387	2.78264e-05	0.0032438
12.8737	12.6383	-0.000105615	0.00419548
12.8742	12.6378	-0.00138242	0.00355641
12.8747	12.6373	-0.00041498	0.00256424
12.8752	12.6368	0.000586667	0.00244436
12.8756	12.6364	1.19533e-05	0.00321545
12.8761	12.6359	-0.000158299	0.00422179
12.8766	12.6354	-0.00110653	0.00357058
12.8771	12.6349	-0.000484537	0.00267773
12.8775	12.6345	0.000629614	0.00243969
12.878	12.634	-4.75977e-05	0.00328599
12.8785	12.6335	-0.000195913	0.00437248
12.8789	12.633	-0.00109966	0.00361041
12.8794	12.6326	-0.000478401	0.00255704
12.8799	12.6321	0.000767657	0.00244125
12.8804	12.6317	-2.94595e-05	0.00319488
12.8808	12.6312	-0.000264667	0.0042249
12.8813	12.6307	-0.00113214	0.00372186
12.8818	12.6302	-0.000536419	0.00248468
12.8822	12.6298	0.00073418	0.00259366
12.8827	12.6293	-4.73302e-05	0.00326683
12.8832	12.6288	-0.000224521	0.00434913
12.8837	12.6284	-0.00107612	0.00365761
12.8841	12.6279	-0.000495006	0.00247689
12.8846	12.6274	0.000688434	0.00249976
12.8851	12.6269	-0.000213516	0.00332271
12.8856	12.6265	-0.000295343	0.00431193
12.886	12.626	-0.00100377	0.00352962
12.8865	12.6255	-0.000594703	0.0024056
12.887	12.625	0.000831613	0.00257932
12.8874	12.6245	-4.453e-05	0.00330559
12.8879	12.624	-0.000467665	0.00420171
12.8884	12.6236	-0.000912469	0.00355158
12.8889	12.6231	-0.000505742	0.00240109
12.8893	12.6226	0.000925639	0.00254679
12.8898	12.6222	-0.000133758	0.00334918
12.8903	12.6217	-0.000594703	0.00427193
12.8907	12.6212	-0.000899467	0.00352822
12.8912	12.6207	-0.000517014	0.0024056
12.8917	12.6203	0.000923641	0.00268954
12.8922	12.6198	4.06319e-05	0.00343186
12.8926	12.6193	-0.000542019	0.00428857
12.8931	12.6189	-0.000958483	0.00349864
12.8936	12.6184	-0.000684467	0.00229211
12.8941	12.6179	0.00103688	0.00268331
12.8945	12.6175	-0.000152432	0.00339884
12.895	12.617	-0.000578563	0.00427596
12.8955	12.6165	-0.000847318	0.00352838
12.8959	12.616	-0.000581969	0.00233833
12.8964	12.6156	0.000991396	0.00265717
12.8969	12.6151	-0.000141427	0.00352028
12.8974	12.6146	-0.000602907	0.00424326
12.8978	12.6141	-0.000823776	0.00345317
12.8983	12.6137	-0.000685465	0.00218935
12.8988	12.6132	0.000866355	0.00257047
