# 1304     AichiSR QXAFS
# Start     : 8.9544
# End       : 9.0544
# Dir       : Forward
# Points    : 300
# ScanTime  : 1.01549
# Date      : 13.04.23 22:38
# Ring Cur. : 1[mA]
12.7557	12.7559	-0.000908402	0.00399604
12.7562	12.7554	-0.000545889	0.00319038
12.7566	12.7549	-0.000429783	0.00208955
12.7571	12.7544	0.000717844	0.00278811
12.7576	12.754	-0.000108682	0.00384674
12.7581	12.7535	-0.00107079	0.00396367
12.7585	12.753	-0.000500873	0.00328985
12.759	12.7526	-0.000500873	0.00207226
12.7595	12.7521	0.000771259	0.00279852
12.7599	12.7516	6.15702e-05	0.00369014
12.7604	12.7512	-0.00108559	0.00405724
12.7609	12.7507	-0.000434652	-0.00767488
12.7614	12.7502	-0.000327286	0.00680955
12.7618	12.7498	0.000762324	0.00288619
12.7623	12.7493	-5.6533e-05	0.00390418
12.7628	12.7488	-0.00109046	0.00402079
12.7632	12.7484	-0.000458926	0.00314555
12.7637	12.7479	-0.00041218	0.00217378
12.7642	12.7474	0.000701239	0.00291652
12.7647	12.747	-2.63918e-05	0.0037507
12.7651	12.7465	-0.00117202	0.00404725
12.7656	12.746	-0.000456393	0.00309261
12.7661	12.7455	-0.00023606	0.00213609
12.7666	12.745	0.000621214	0.00278
12.767	12.7446	8.71099e-05	0.00388099
12.7675	12.7441	-0.00118122	0.00399309
12.768	12.7436	-0.000376368	0.00312408
12.7684	12.7432	-0.000200515	0.0021646
12.7689	12.7427	0.000617344	0.00274435
12.7694	12.7422	0.000101717	0.00379273
12.7699	12.7418	-0.00117248	0.00390794
12.7703	12.7413	-0.000388103	0.00315161
12.7708	12.7408	-0.000158032	0.00227154
12.7713	12.7403	0.000668227	0.00283466
12.7717	12.7399	9.17113e-05	0.00392147
12.7722	12.7394	-0.00130953	0.00400055
12.7727	12.7389	-0.000476065	0.00311318
12.7732	12.7385	-0.000222987	0.00225597
12.7736	12.738	0.000594871	0.00285473
12.7741	12.7375	9.19788e-05	0.00398391
12.7746	12.737	-0.00129473	0.00380143
12.7751	12.7366	-0.000353628	0.00302739
12.7755	12.7361	-8.18764e-05	0.00220336
12.776	12.7356	0.000479033	0.00286858
12.7765	12.7351	0.000109386	0.00403029
12.7769	12.7346	-0.00145244	0.00387181
12.7774	12.7341	-0.000344693	0.00303517
12.7779	12.7337	-8.34102e-05	0.0021456
12.7784	12.7332	0.000529382	0.00279294
12.7788	12.7327	0.000115985	0.00395293
12.7793	12.7323	-0.00134914	0.00385206
12.7798	12.7318	-0.000393774	0.00299657
12.7802	12.7313	-7.96113e-05	0.00224819
12.7807	12.7309	0.00051638	0.00290799
12.7812	12.7304	0.000169668	0.00408199
12.7817	12.7299	-0.00138902	0.00380331
12.7821	12.7294	-0.000505011	0.00289382
12.7826	12.729	0.000103982	0.00209594
12.7831	12.7285	0.000280905	0.00296683
12.7836	12.728	0.000245627	0.00415189
12.784	12.7276	-0.00139902	0.00396769
12.7845	12.7271	-0.000373032	0.00295158
12.785	12.7266	-3.17116e-07	0.00211044
12.7854	12.7261	0.00039594	0.00281286
12.7859	12.7257	0.000138261	0.00407265
12.7864	12.7252	-0.00157515	0.00391696
12.7869	12.7247	-0.000332422	0.00292307
12.7873	12.7242	3.2855e-06	0.00215322
12.7878	12.7238	0.00036653	0.00282998
12.7883	12.7233	0.00013439	0.00410379
12.7887	12.7228	-0.00149665	0.00375676
12.7892	12.7224	-0.000424451	0.00290751
12.7897	12.7219	0.000185541	0.00217018
12.7902	12.7214	0.000348392	0.00285457
12.7906	12.721	0.000226954	0.00408929
12.7911	12.7205	-0.00143143	0.00363811
12.7916	12.72	-0.000416782	0.00267569
12.7921	12.7195	0.000135193	0.002225
12.7925	12.7191	0.000275304	0.00288276
12.793	12.7186	0.000306979	0.00424138
12.7935	12.7182	-0.00154627	0.00368949
12.7939	12.7177	-0.000335222	0.00282204
12.7944	12.7172	0.000198079	0.00225957
12.7949	12.7167	0.00018374	0.00288259
12.7954	12.7163	0.000230557	0.00410642
12.7958	12.7158	-0.00152046	0.00361648
12.7963	12.7153	-0.000325484	0.00277828
12.7968	12.7148	0.00033432	0.00226327
12.7972	12.7143	0.000188145	0.00294315
12.7977	12.7139	0.000130324	0.00406266
12.7982	12.7134	-0.00143484	0.00370989
12.7987	12.7129	-0.000386373	0.00283605
12.7991	12.7125	0.000245627	0.00225925
12.7996	12.712	0.000249497	0.00288587
12.8001	12.7115	0.00018094	0.00423473
12.8006	12.7111	-0.00138875	0.00370538
12.801	12.7106	-0.000389904	0.00275263
12.8015	12.7101	0.000200612	0.00228212
12.802	12.7096	0.000209083	0.00302722
12.8024	12.7092	0.000132125	0.00417353
12.8029	12.7087	-0.00130412	0.00365213
12.8034	12.7082	-0.000387907	0.00271944
12.8039	12.7078	0.000393943	0.00223106
12.8043	12.7073	0.000240758	0.00290799
12.8048	12.7068	0.000163069	0.00413256
12.8053	12.7063	-0.00135148	0.0035891
12.8057	12.7058	-0.000393507	0.00280663
12.8062	12.7054	0.000390073	0.00231981
12.8067	12.7049	5.15648e-05	0.00297569
12.8072	12.7044	0.000156934	0.00414427
12.8076	12.7039	-0.00137115	0.00364966
12.8081	12.7034	-0.000374834	0.00263521
12.8086	12.703	0.00041308	0.00218157
12.8091	12.7025	0.000159199	0.00295609
12.8095	12.7021	0.000120122	0.0040924
12.81	12.7016	-0.00129799	0.00354084
12.8105	12.7011	-0.000315818	0.00263103
12.8109	12.7006	0.000440153	0.00231342
12.8114	12.7001	8.86437e-05	0.00302911
12.8119	12.6997	0.000176606	0.00420278
12.8124	12.6992	-0.00136141	0.00352855
12.8128	12.6988	-0.000427251	0.00264144
12.8133	12.6983	0.000529649	0.00228679
12.8138	12.6978	8.55761e-05	0.00302272
12.8142	12.6974	0.000114451	0.00418861
12.8147	12.6969	-0.00123104	0.00360263
12.8152	12.6964	-0.000343159	0.00257589
12.8157	12.6959	0.000594604	0.00217083
12.8161	12.6955	8.68424e-05	0.00313497
12.8166	12.695	4.72309e-05	0.00421868
12.8171	12.6945	-0.00123437	0.00354642
12.8176	12.694	-0.000379435	0.00260252
12.818	12.6936	0.000581799	0.00230252
12.8185	12.6931	4.46983e-05	0.00322511
12.819	12.6926	-3.19921e-05	0.00423424
12.8194	12.6922	-0.00121056	0.0035279
12.8199	12.6917	-0.000477599	0.00252499
12.8204	12.6912	0.000591269	0.00234939
12.8209	12.6908	-5.86018e-05	0.0031208
12.8213	12.6903	-3.17958e-05	0.00423408
12.8218	12.6898	-0.00121516	0.0035905
12.8223	12.6894	-0.000334955	0.00251131
12.8227	12.6889	0.000677162	0.00245198
12.8232	12.6884	-3.99286e-05	0.00325421
12.8237	12.688	-0.000177508	0.00423736
12.8242	12.6875	-0.0010191	0.00354379
12.8246	12.687	-0.000327821	0.00242707
12.8251	12.6865	0.000687899	0.00242272
12.8256	12.686	-4.17299e-05	0.00327912
12.8261	12.6856	-0.000185177	0.00413214
12.8265	12.6851	-0.00108559	0.0034784
12.827	12.6846	-0.000485535	0.00250508
12.8275	12.6841	0.000745185	0.00240527
12.8279	12.6836	3.0359e-05	0.00330296
12.8284	12.6832	-0.000196645	0.0041396
12.8289	12.6827	-0.00102677	0.00357772
12.8294	12.6822	-0.000425984	0.00260456
12.8298	12.6818	0.000870957	0.00243641
12.8303	12.6813	-4.42625e-05	0.00321577
12.8308	12.6808	-0.000333688	0.00420015
12.8312	12.6804	-0.00120189	0.003576
12.8317	12.6799	-0.000564562	0.00244076
12.8322	12.6794	0.00082801	0.00237462
12.8327	12.679	4.03644e-05	0.00328739
12.8331	12.6785	-0.000400641	0.00418303
12.8336	12.678	-0.0009997	0.0035279
12.8341	12.6775	-0.000527216	0.00236152
12.8346	12.6771	0.000803469	0.00242847
12.835	12.6766	-4.01961e-05	0.00324503
12.8355	12.6761	-0.000307881	0.00421196
12.836	12.6756	-0.00104391	0.0034339
12.8364	12.6751	-0.000521348	0.00229629
12.8369	12.6747	0.000877092	0.00230907
12.8374	12.6742	-8.34102e-05	0.00328035
12.8379	12.6737	-0.00046433	0.00427284
12.8383	12.6732	-0.000860854	0.00356435
12.8388	12.6728	-0.000471731	0.00245042
12.8393	12.6723	0.00095125	0.00248902
12.8397	12.6718	-1.79203e-05	0.00321872
12.8402	12.6714	-0.00038557	0.00418008
12.8407	12.6709	-0.000937545	0.0034471
12.8412	12.6704	-0.000609042	0.00231358
12.8416	12.67	0.00103354	0.00260316
12.8421	12.6695	-2.56605e-05	0.00321561
12.8426	12.669	-0.000407044	0.00417632
12.8431	12.6686	-0.000854987	0.00355716
12.8435	12.6681	-0.000574496	0.00221582
12.844	12.6676	0.000926441	0.00257031
12.8445	12.6672	-7.29411e-05	0.00340367
12.8449	12.6667	-0.000498341	0.00416451
12.8454	12.6662	-0.000841914	0.00348495
12.8459	12.6657	-0.00064432	0.00226687
12.8464	12.6652	0.00101207	0.00262308
12.8468	12.6648	-1.51202e-05	0.00331353
12.8473	12.6643	-0.000564027	0.00418131
12.8478	12.6638	-0.000712075	0.00339916
12.8482	12.6633	-0.000643785	0.00226966
12.8487	12.6629	0.000978858	0.00258588
12.8492	12.6624	-0.000216852	0.0034834
12.8497	12.662	-0.000633048	0.00411887
12.8501	12.6615	-0.000823044	0.0035111
12.8506	12.661	-0.000601373	0.00219526
12.8511	12.6605	0.000926976	0.00259554
12.8516	12.6601	-0.00014116	0.00342563
12.852	12.6596	-0.000687534	0.00424359
12.8525	12.6591	-0.00068213	0.00330886
12.853	12.6587	-0.000654522	0.00222827
12.8534	12.6582	0.00106195	0.00276615
12.8539	12.6577	-0.00014783	0.00348495
12.8544	12.6573	-0.0005771	0.00415812
12.8549	12.6568	-0.000701071	0.00342547
12.8553	12.6563	-0.000762423	0.00217829
12.8558	12.6558	0.000969923	0.002544
12.8563	12.6553	-0.000100282	0.00359484
12.8567	12.6549	-0.000654522	0.00419221
12.8572	12.6544	-0.000729946	0.00343932
12.8577	12.6539	-0.000628179	0.0021515
12.8582	12.6534	0.000906769	0.00255785
12.8586	12.653	-7.54737e-05	0.00352028
12.8591	12.6525	-0.000729411	0.0039998
12.8596	12.652	-0.000579098	0.00330419
12.8601	12.6516	-0.000608507	0.00199195
12.8605	12.6511	0.000950251	0.00261046
12.861	12.6506	1.24883e-05	0.00348635
12.8615	12.6501	-0.000805637	0.00398858
12.8619	12.6497	-0.000626449	0.00336647
12.8624	12.6492	-0.000639451	0.00222844
12.8629	12.6487	0.00089243	0.00272567
12.8634	12.6483	-6.40057e-05	0.00365401
12.8638	12.6478	-0.000853917	0.00411748
12.8643	12.6473	-0.000633583	0.00325126
12.8648	12.6468	-0.000622579	0.00207119
12.8652	12.6464	0.000870957	0.00276459
12.8657	12.6459	-8.18764e-05	0.00349848
12.8662	12.6454	-0.00093141	0.00403947
12.8667	12.6449	-0.000559426	0.00338171
12.8671	12.6444	-0.000561494	0.00210045
12.8676	12.644	0.000929242	0.00269249
12.8681	12.6435	-7.26736e-05	0.0035206
12.8686	12.643	-0.0008992	0.00397113
12.869	12.6426	-0.000522614	0.00324519
12.8695	12.6421	-0.000510344	0.00206947
12.87	12.6416	0.000937713	0.00273501
12.8704	12.6412	9.68823e-06	0.00366179
12.8709	12.6407	-0.000924543	0.00411732
12.8714	12.6402	-0.0004794	0.00335278
12.8719	12.6397	-0.00041498	0.00207258
12.8723	12.6393	0.000845417	0.0027101
12.8728	12.6388	-4.65988e-05	0.00370088
12.8733	12.6384	-0.00104265	0.00406422
12.8737	12.6379	-0.000499607	0.00336271
12.8742	12.6374	-0.000513411	0.00210732
12.8747	12.6369	0.00075412	0.002726
12.8752	12.6365	-1.56552e-05	0.00370259
12.8756	12.636	-0.00105158	0.00398015
12.8761	12.6355	-0.000468931	0.00319865
12.8766	12.635	-0.000391706	0.00211011
12.8771	12.6346	0.000765659	0.00278033
12.8775	12.6341	-4.78652e-05	0.0037915
12.878	12.6336	-0.00104004	0.00398702
12.8785	12.6331	-0.000465863	0.00315956
12.8789	12.6327	-0.000367967	0.00210356
12.8794	12.6322	0.000793	0.00279122
12.8799	12.6318	2.90927e-05	0.00378028
12.8804	12.6313	-0.00108866	0.0039277
12.8808	12.6308	-0.000294541	0.00324954
12.8813	12.6303	-0.000228854	0.00211323
12.8818	12.6299	0.000770261	0.0028812
12.8822	12.6294	8.53086e-05	0.00382183
12.8827	12.6289	-0.00114108	0.00388255
12.8832	12.6285	-0.00030888	0.00312842
12.8837	12.628	-0.000291277	0.00199769
12.8841	12.6275	0.000660825	0.00280352
12.8846	12.627	8.86437e-05	0.00393843
12.8851	12.6266	-0.00129212	0.00393564
12.8856	12.6261	-0.000377438	0.00313605
12.886	12.6256	-0.0002672	0.00200113
12.8865	12.6251	0.000607873	0.00291406
12.887	12.6246	0.000111918	0.00393221
12.8874	12.6242	-0.00120063	0.00391836
12.8879	12.6237	-0.00040551	0.00313948
12.8884	12.6232	-0.000249596	0.00212519
12.8889	12.6227	0.000717309	0.00278795
12.8893	12.6223	7.48395e-05	0.00384985
12.8898	12.6218	-0.00119936	0.00390107
12.8903	12.6213	-0.00038557	0.0030786
12.8907	12.6209	-0.000120757	0.0021792
12.8912	12.6204	0.00051918	0.00279729
12.8917	12.6199	0.000124724	0.003959
12.8922	12.6194	-0.00121037	0.0039853
12.8926	12.619	-0.000296877	0.00315006
12.8931	12.6185	-0.000169838	0.00214141
12.8936	12.618	0.000611208	0.00278672
12.8941	12.6176	0.000198347	0.00383149
12.8945	12.6171	-0.00126712	0.00391041
12.895	12.6166	-0.000267467	0.00289554
12.8955	12.6161	-7.64725e-05	0.00211446
12.8959	12.6157	0.000445022	0.00288603
12.8964	12.6152	0.0001526	0.00387074
12.8969	12.6147	-0.00129852	0.00381265
12.8974	12.6142	-0.000322149	0.00296994
12.8978	12.6137	-9.92833e-05	0.00213142
12.8983	12.6133	0.000440688	0.00288136
12.8988	12.6128	2.44913e-05	0.00406782
