# 1304     AichiSR QXAFS
# Start     : 8.9544
# End       : 9.0544
# Dir       : Backward
# Points    : 300
# ScanTime  : 1.01549
# Date      : 13.04.23 23:41
# Ring Cur. : 0.9[mA]
12.7557	12.6124	-2.09879e-05	0.00343637
12.7562	12.6128	-0.000633316	0.00421508
12.7566	12.6133	-0.000731016	0.00355453
12.7571	12.6137	-0.000603906	0.00232899
12.7576	12.6142	0.000996265	0.0025644
12.7581	12.6147	-0.000145494	0.00338826
12.7585	12.6152	-0.000533083	0.00417401
12.759	12.6156	-0.000742216	0.00347185
12.7595	12.6161	-0.000710274	0.00224647
12.7599	12.6166	0.000976326	0.00267397
12.7604	12.6171	-0.000112018	0.00350831
12.7609	12.6176	-0.000694936	0.00403668
12.7614	12.618	-0.000593704	0.0033713
12.7618	12.6185	-0.000658124	0.00211011
12.7623	12.619	0.000992128	0.00271322
12.7628	12.6194	-0.000145298	0.00355576
12.7632	12.6199	-0.000700803	0.00410969
12.7637	12.6204	-0.000625379	0.00339868
12.7642	12.6208	-0.00071154	0.00221829
12.7647	12.6213	0.000949449	0.00269937
12.7651	12.6218	-0.000133758	0.0035701
12.7656	12.6223	-0.00093981	0.00410985
12.7661	12.6227	-0.000626378	0.00332083
12.7666	12.6232	-0.000610309	0.0022046
12.767	12.6237	0.00107189	0.00278607
12.7675	12.6241	-0.000127159	0.00364171
12.768	12.6246	-0.000780294	0.00410223
12.7684	12.6251	-0.000556626	0.00336351
12.7689	12.6256	-0.000638185	0.00217518
12.7694	12.6261	0.000942315	0.00274108
12.7699	12.6265	-3.99286e-05	0.0036794
12.7703	12.627	-0.00102344	0.00407093
12.7708	12.6275	-0.000513411	0.00325109
12.7713	12.628	-0.000470197	0.00197761
12.7717	12.6284	0.000880427	0.00257031
12.7722	12.6289	-9.51457e-05	0.00368498
12.7727	12.6294	-0.00100603	0.00406438
12.7732	12.6298	-0.000510344	0.00323102
12.7736	12.6303	-0.000585233	0.002107
12.7741	12.6308	0.000805538	0.00283294
12.7746	12.6313	9.15323e-06	0.00378479
12.7751	12.6317	-0.00105718	0.00397612
12.7755	12.6322	-0.000514945	0.0033291
12.776	12.6327	-0.000360566	0.00217206
12.7765	12.6331	0.000822143	0.00284743
12.7769	12.6336	4.46983e-05	0.00367629
12.7774	12.6341	-0.001116	0.0040384
12.7779	12.6345	-0.000578634	0.00330108
12.7784	12.635	-0.000414445	0.00209905
12.7788	12.6355	0.000830543	0.00292307
12.7793	12.636	7.97084e-05	0.00387836
12.7798	12.6364	-0.00103291	0.00394187
12.7802	12.6369	-0.000487069	0.00319258
12.7807	12.6374	-0.000306811	0.00212085
12.7812	12.6379	0.00066309	0.00280835
12.7817	12.6383	-2.69268e-05	0.00386231
12.7821	12.6388	-0.00116021	0.00398997
12.7826	12.6393	-0.000407579	0.00316423
12.7831	12.6397	-0.00027	0.00210372
12.7836	12.6402	0.000629882	0.00291668
12.784	12.6407	4.01681e-06	0.00384674
12.7845	12.6411	-0.00131566	0.00384674
12.785	12.6416	-0.00035336	0.00308532
12.7854	12.6421	-0.000304546	0.00211757
12.7859	12.6425	0.000450159	0.00285785
12.7864	12.643	2.9824e-05	0.00390139
12.7869	12.6435	-0.00136655	0.00391836
12.7873	12.6439	-0.000365898	0.00303361
12.7878	12.6444	-8.28752e-05	0.00213223
12.7883	12.6449	0.000445557	0.00282188
12.7887	12.6454	8.91787e-05	0.00406938
12.7892	12.6458	-0.00144811	0.0038396
12.7897	12.6463	-0.00041498	0.00306958
12.7902	12.6468	-0.000155499	0.00208767
12.7906	12.6473	0.000489503	0.00281458
12.7911	12.6478	-8.25365e-06	0.00396055
12.7916	12.6482	-0.00134227	0.00380363
12.7921	12.6487	-0.000337024	0.00297101
12.7925	12.6492	-0.000146564	0.00219837
12.793	12.6496	0.00048137	0.00291873
12.7935	12.6501	9.42073e-06	0.00403078
12.7939	12.6506	-0.00145037	0.00385378
12.7944	12.6511	-0.000430586	0.00302927
12.7949	12.6515	-8.28752e-05	0.00224524
12.7954	12.652	0.000399008	0.00288759
12.7958	12.6525	7.20393e-05	0.00393581
12.7963	12.6529	-0.00168305	0.00379585
12.7968	12.6534	-0.000436186	0.00291389
12.7972	12.6539	2.47588e-05	0.00222935
12.7977	12.6544	0.000293443	0.00291996
12.7982	12.6548	0.000137726	0.00407716
12.7987	12.6553	-0.00151299	0.00366335
12.7991	12.6558	-0.000349294	0.00286686
12.7996	12.6563	-1.31593e-06	0.00215043
12.8001	12.6568	0.00039701	0.00299952
12.8006	12.6572	0.000230557	0.00410797
12.801	12.6577	-0.00148438	0.00369046
12.8015	12.6582	-0.000348028	0.00289242
12.802	12.6586	0.000153599	0.0021311
12.8024	12.6591	0.00024923	0.00283449
12.8029	12.6596	0.000153064	0.00418942
12.8034	12.66	-0.00140102	0.00369277
12.8039	12.6605	-0.000348295	0.00289349
12.8043	12.661	0.00018094	0.00216863
12.8048	12.6615	0.000206479	0.00296076
12.8053	12.6619	0.000224421	0.00414394
12.8057	12.6624	-0.00154474	0.00367113
12.8062	12.6629	-0.000327553	0.00282719
12.8067	12.6633	0.000268634	0.0022468
12.8072	12.6638	0.000210617	0.00303222
12.8076	12.6643	0.000202146	0.00414534
12.8081	12.6647	-0.00148952	0.00374168
12.8086	12.6652	-0.00028614	0.0027741
12.8091	12.6657	0.000387005	0.00229989
12.8095	12.6662	0.000245895	0.00308204
12.81	12.6666	0.00034586	0.00427193
12.8105	12.6671	-0.00134381	0.00376734
12.8109	12.6676	-0.000350828	0.00282515
12.8114	12.6681	0.000321586	0.00213175
12.8119	12.6685	0.000178942	0.00305729
12.8124	12.669	0.000129593	0.00431193
12.8128	12.6695	-0.00150712	0.00368638
12.8133	12.6699	-0.000389975	0.00268552
12.8138	12.6704	0.000442757	0.00233505
12.8142	12.6709	0.000186611	0.00302722
12.8147	12.6713	8.45773e-05	0.00416091
12.8152	12.6718	-0.00136501	0.00355469
12.8157	12.6723	-0.000371499	0.00280942
12.8161	12.6727	0.000428953	0.00239282
12.8166	12.6732	0.000198079	0.00315489
12.8171	12.6737	8.97137e-05	0.00407061
12.8176	12.6741	-0.00133867	0.00363983
12.818	12.6746	-0.000324486	0.00268938
12.8185	12.6751	0.000457828	0.00236184
12.819	12.6756	0.000159199	0.00304247
12.8194	12.6761	7.35192e-06	0.00425948
12.8199	12.6765	-0.00129185	0.0037158
12.8204	12.677	-0.000393774	0.002785
12.8209	12.6775	0.000597672	0.00222065
12.8213	12.678	-6.45235e-06	0.00317014
12.8218	12.6785	-2.83895e-05	0.00426726
12.8223	12.6789	-0.00124584	0.00363065
12.8227	12.6794	-0.0003733	0.00251721
12.8232	12.6798	0.0005808	0.00237586
12.8237	12.6803	-3.17116e-07	0.00309573
12.8242	12.6808	-0.000230923	0.00435659
12.8246	12.6813	-0.00120469	0.00352667
12.8251	12.6818	-0.000441857	0.00266168
12.8256	12.6822	0.000528383	0.00242551
12.8261	12.6827	-9.51996e-06	0.00315924
12.8265	12.6831	-0.000121755	0.00430103
12.827	12.6836	-0.00117735	0.00350798
12.8275	12.6841	-0.000430318	0.00257793
12.8279	12.6846	0.000768994	0.00242084
12.8284	12.685	-0.000151165	0.00316923
12.8289	12.6855	-0.000159369	0.00433045
12.8294	12.686	-0.00114695	0.00369948
12.8298	12.6865	-0.000421918	0.00254073
12.8303	12.687	0.000755654	0.00244108
12.8308	12.6874	-5.49992e-05	0.00333517
12.8312	12.6879	-0.000220918	0.0041768
12.8317	12.6884	-0.00102577	0.00366319
12.8322	12.6889	-0.000386105	0.00245354
12.8327	12.6893	0.000808802	0.00251254
12.8331	12.6898	-9.82133e-05	0.00328599
12.8336	12.6902	-0.000301746	0.00429341
12.8341	12.6907	-0.000976425	0.00362786
12.8346	12.6912	-0.000544819	0.00243346
12.835	12.6917	0.000843348	0.00243641
12.8355	12.6921	-9.18106e-05	0.00325265
12.836	12.6926	-0.000363366	0.00422335
12.8364	12.6931	-0.000953685	0.00355936
12.8369	12.6935	-0.000470732	0.00231358
12.8374	12.694	0.000920039	0.00245665
12.8379	12.6945	6.71704e-05	0.00322651
12.8383	12.6949	-0.000361832	0.004155
12.8388	12.6954	-0.000922474	0.00345054
12.8393	12.6959	-0.0005827	0.0023058
12.8397	12.6964	0.000865357	0.00253605
12.8402	12.6968	-0.000129959	0.00341129
12.8407	12.6973	-0.000378169	0.00415968
12.8412	12.6978	-0.00095315	0.0035687
12.8416	12.6983	-0.000478134	0.00230531
12.8421	12.6987	0.00088683	0.00258416
12.8426	12.6992	-4.14624e-05	0.00334885
12.8431	12.6996	-0.000484537	0.00416247
12.8435	12.7001	-0.000763422	0.00365852
12.844	12.7006	-0.000667595	0.00220599
12.8445	12.7011	0.00101207	0.0025899
12.8449	12.7016	-0.00012229	0.00345349
12.8454	12.702	-0.000509345	0.0042744
12.8459	12.7025	-0.000893332	0.00353584
12.8464	12.703	-0.000589834	0.00230112
12.8468	12.7034	0.000921573	0.00265405
12.8473	12.7039	-0.000101013	0.00333705
12.8478	12.7044	-0.000565828	0.00413879
12.8482	12.7048	-0.000785698	0.0034099
12.8487	12.7053	-0.000615713	0.00218468
12.8492	12.7058	0.000877895	0.00255597
12.8497	12.7063	-5.58017e-05	0.00353568
12.8501	12.7068	-0.000756556	0.00422195
12.8506	12.7073	-0.000728144	0.00354035
12.8511	12.7077	-0.000672196	0.00221271
12.8516	12.7082	0.000856154	0.00256375
12.852	12.7087	-0.000175974	0.00356199
12.8525	12.7091	-0.000715678	0.00404849
12.853	12.7096	-0.000773962	0.00348152
12.8534	12.7101	-0.000747085	0.00226376
12.8539	12.7106	0.000997532	0.0027909
12.8544	12.711	-0.000156766	0.00355732
12.8549	12.7115	-0.000706671	0.00410035
12.8553	12.712	-0.000652988	0.00335729
12.8558	12.7124	-0.000675531	0.00209766
12.8563	12.7129	0.000791734	0.00276894
12.8567	12.7134	-8.00751e-05	0.00360591
12.8572	12.7138	-0.00078543	0.00421121
12.8577	12.7143	-0.000610041	0.00331509
12.8582	12.7148	-0.000575566	0.00212208
12.8586	12.7153	0.000919771	0.00271494
12.8591	12.7158	-5.78705e-05	0.00362631
12.8596	12.7162	-0.000826843	0.0041732
12.8601	12.7167	-0.000586303	0.00339637
12.8605	12.7172	-0.000585768	0.00206324
12.861	12.7177	0.000780997	0.00275632
12.8615	12.7181	-8.77442e-05	0.00365884
12.8619	12.7186	-0.00102884	0.00397269
12.8624	12.7191	-0.000575299	0.00332271
12.8629	12.7195	-0.000468663	0.00227417
12.8634	12.72	0.000923641	0.00279606
12.8638	12.7205	-0.000147295	0.00370383
12.8643	12.7209	-0.00107072	0.00413632
12.8648	12.7214	-0.000383038	0.00336459
12.8652	12.7219	-0.00056763	0.00209733
12.8657	12.7223	0.000777395	0.00273174
12.8662	12.7228	-4.84002e-05	0.00372047
12.8667	12.7233	-0.00108632	0.00403824
12.8671	12.7237	-0.000458729	0.00329813
12.8676	12.7242	-0.000621777	0.0021973
12.8681	12.7247	0.000874559	0.00267429
12.8686	12.7251	-4.86677e-05	0.00372374
12.869	12.7256	-0.00107025	0.00412247
12.8695	12.7261	-0.000440324	0.00307909
12.87	12.7266	-0.00046433	0.00215215
12.8704	12.7271	0.000677965	0.0027319
12.8709	12.7275	-1.49239e-05	0.00372439
12.8714	12.728	-0.00127452	0.00395556
12.8719	12.7285	-0.000420848	0.00329281
12.8723	12.7289	-0.000270535	0.00224491
12.8728	12.7294	0.000585669	0.0026416
12.8733	12.7299	-5.17353e-05	0.00389549
12.8737	12.7303	-0.00116688	0.00399497
12.8742	12.7308	-0.000349294	0.00310523
12.8747	12.7313	-0.000356963	0.00213191
12.8752	12.7318	0.000791466	0.00284711
12.8756	12.7322	-1.41214e-05	0.00388754
12.8761	12.7327	-0.00114894	0.00401628
12.8766	12.7332	-0.000417513	0.00316267
12.8771	12.7336	-0.000396842	0.00223869
12.8775	12.7341	0.000674362	0.00278623
12.878	12.7346	2.14237e-05	0.00396243
12.8785	12.7351	-0.00124358	0.00397129
12.8789	12.7356	-0.000498608	0.00321201
12.8794	12.7361	-0.000270802	0.00211258
12.8799	12.7365	0.000671294	0.00286407
12.8804	12.737	0.000112186	0.00398825
12.8808	12.7375	-0.00135888	0.00396227
12.8813	12.738	-0.000356428	0.00314587
12.8818	12.7384	-0.000179773	0.00223123
12.8822	12.7389	0.00065189	0.00276443
12.8827	12.7394	-6.01356e-05	0.00409912
12.8832	12.7398	-0.00131413	0.00392491
12.8837	12.7403	-0.000411645	0.00295888
12.8841	12.7408	-5.73355e-05	0.00210372
12.8846	12.7413	0.000469563	0.00283047
12.8851	12.7417	-1.59227e-05	0.00395695
12.8856	12.7422	-0.00139922	0.00384534
12.886	12.7427	-0.000334223	0.00296264
12.8865	12.7431	-0.000165968	0.00228416
12.887	12.7436	0.000469831	0.00287202
12.8874	12.7441	3.95619e-05	0.00413412
12.8879	12.7445	-0.00142303	0.00378962
12.8884	12.745	-0.000419849	0.00313014
12.8889	12.7455	8.40423e-05	0.00221099
12.8893	12.746	0.000457828	0.00284958
12.8898	12.7465	0.00012039	0.00414271
12.8903	12.7469	-0.00135961	0.0037952
12.8907	12.7474	-0.000284607	0.00290579
12.8912	12.7479	-2.11842e-06	0.00213781
12.8917	12.7483	0.000302913	0.00285489
12.8922	12.7488	0.000244361	0.00411018
12.8926	12.7493	-0.00155241	0.00383305
12.8931	12.7497	-0.000391973	0.00301305
12.8936	12.7502	0.000234355	0.00219337
12.8941	12.7507	0.000381137	0.00288882
12.8945	12.7512	0.000168134	0.00408511
12.895	12.7516	-0.00149052	0.0037348
12.8955	12.7521	-0.000285873	0.00293585
12.8959	12.7526	0.000226223	0.00223402
12.8964	12.753	0.000287842	0.00287702
12.8969	12.7535	0.000229023	0.0040974
12.8974	12.7539	-0.00148058	0.00355141
12.8978	12.7544	-0.000299677	0.00285801
12.8983	12.7549	0.000206016	0.00227138
12.8988	12.7554	0.00024923	0.00293242
