# 1304     AichiSR QXAFS
# Start     : 8.9544
# End       : 9.0544
# Dir       : Backward
# Points    : 300
# ScanTime  : 1.01549
# Date      : 13.04.23 23:04
# Ring Cur. : 0.9[mA]
12.7557	12.6122	-0.00148105	0.00380363
12.7562	12.6127	-0.000340626	0.00299469
12.7566	12.6131	-4.57963e-05	0.00223278
12.7571	12.6136	0.000451692	0.00284711
12.7576	12.6141	0.000144663	0.00409133
12.7581	12.6145	-0.00146264	0.00370587
12.7585	12.615	-0.000311948	0.00294691
12.759	12.6155	0.000118321	0.00223697
12.7595	12.616	0.000385471	0.00285489
12.7599	12.6164	0.000184542	0.00412838
12.7604	12.6169	-0.00134887	0.0038097
12.7609	12.6174	-0.000295878	0.00291717
12.7614	12.6179	0.000125259	0.00213051
12.7618	12.6183	0.00038087	0.00298256
12.7623	12.6188	0.000166137	0.00419065
12.7628	12.6193	-0.00151866	0.00379601
12.7632	12.6197	-0.000321953	0.002981
12.7637	12.6202	1.0687e-05	0.0022563
12.7642	12.6207	0.000355259	0.00295872
12.7647	12.6212	0.000176606	0.00413321
12.7651	12.6217	-0.0014473	0.00371891
12.7656	12.6221	-0.000360031	0.00283106
12.7661	12.6226	0.000138261	0.00238192
12.7666	12.623	0.000334124	0.00292152
12.767	12.6235	0.000216752	0.004214
12.7675	12.624	-0.00161476	0.00373046
12.768	12.6245	-0.000383038	0.00293413
12.7684	12.6249	0.000235693	0.00218001
12.7689	12.6254	0.00022262	0.00301493
12.7694	12.6259	0.000166333	0.00424171
12.7699	12.6264	-0.00137955	0.00373808
12.7703	12.6269	-0.000309879	0.00292463
12.7708	12.6273	0.000272504	0.00217829
12.7713	12.6278	0.000124991	0.00291529
12.7717	12.6283	0.000129325	0.00411109
12.7722	12.6288	-0.00142663	0.0037988
12.7727	12.6292	-0.000404779	0.00272133
12.7732	12.6297	0.000244896	0.00219993
12.7736	12.6301	0.000102716	0.00292028
12.7741	12.6306	0.00027757	0.0042081
12.7746	12.6311	-0.00136321	0.00363983
12.7751	12.6316	-0.000385107	0.00275525
12.7755	12.632	0.000402076	0.00220943
12.776	12.6325	0.000204946	0.0030822
12.7765	12.633	0.000179673	0.0042431
12.7769	12.6334	-0.0014261	0.00357149
12.7774	12.6339	-0.000244995	0.00274419
12.7779	12.6344	0.000379336	0.00228588
12.7784	12.6349	0.000144663	0.00303157
12.7788	12.6353	0.000140526	0.00420606
12.7793	12.6358	-0.00139769	0.00365465
12.7798	12.6363	-0.000255197	0.00275821
12.7802	12.6368	0.000401077	0.00223713
12.7807	12.6372	3.90981e-05	0.00304467
12.7812	12.6377	0.000147463	0.00427875
12.7817	12.6382	-0.00138495	0.00359329
12.7821	12.6386	-0.00040658	0.00263333
12.7826	12.6391	0.000332055	0.00225458
12.7831	12.6396	6.38353e-05	0.00304247
12.7836	12.64	-1.17851e-05	0.00418475
12.784	12.6405	-0.00123717	0.00361041
12.7845	12.641	-0.00048327	0.0026402
12.785	12.6415	0.000545255	0.0024224
12.7854	12.6419	0.000133659	0.00313465
12.7859	12.6424	-4.96168e-08	0.00420311
12.7864	12.6428	-0.00132053	0.00358116
12.7869	12.6433	-0.000478598	0.0025994
12.7873	12.6438	0.000600204	0.00249123
12.7878	12.6442	7.69083e-05	0.00311081
12.7883	12.6447	1.21669e-06	0.00424203
12.7887	12.6452	-0.0012295	0.00353477
12.7892	12.6457	-0.000411378	0.00277861
12.7897	12.6462	0.000606607	0.00243207
12.7902	12.6466	2.14237e-05	0.00326871
12.7906	12.6471	-8.16089e-05	0.00427284
12.7911	12.6476	-0.00114568	0.00354551
12.7916	12.6481	-0.000329354	0.00259505
12.7921	12.6486	0.000637016	0.00236463
12.7925	12.649	-1.87228e-05	0.00321561
12.793	12.6495	-5.06653e-05	0.00432331
12.7935	12.65	-0.00110193	0.00355518
12.7939	12.6504	-0.000470465	0.00247722
12.7944	12.6509	0.000671562	0.00241338
12.7949	12.6514	9.63128e-05	0.00329034
12.7954	12.6519	-0.000276403	0.00419114
12.7958	12.6523	-0.00109119	0.00376143
12.7963	12.6528	-0.000467397	0.00247362
12.7968	12.6533	0.000796068	0.0024945
12.7972	12.6537	4.08282e-05	0.00322495
12.7977	12.6542	-0.00012229	0.00431005
12.7982	12.6547	-0.00114568	0.00361229
12.7987	12.6552	-0.000545621	0.00251131
12.7991	12.6556	0.000777662	0.00243969
12.7996	12.6561	-1.25876e-05	0.0032796
12.8001	12.6566	-0.00028894	0.0042948
12.8006	12.6571	-0.00106738	0.00363098
12.801	12.6576	-0.00034389	0.00235218
12.8015	12.658	0.000682299	0.00247083
12.802	12.6585	-5.72104e-06	0.00326108
12.8024	12.659	-0.00034389	0.00419377
12.8029	12.6594	-0.00110626	0.00352978
12.8034	12.6599	-0.000582165	0.00237618
12.8039	12.6604	0.000847218	0.00236061
12.8043	12.6608	-3.48634e-05	0.00326683
12.8048	12.6613	-0.000361832	0.00423253
12.8053	12.6618	-0.000983559	0.00350192
12.8057	12.6622	-0.00054942	0.00234284
12.8062	12.6627	0.000823676	0.00253605
12.8067	12.6632	-5.40004e-05	0.00337581
12.8072	12.6636	-0.000376368	0.0042059
12.8076	12.6641	-0.000990229	0.00347078
12.8081	12.6646	-0.000613376	0.00239577
12.8086	12.6651	0.00086302	0.00252204
12.8091	12.6655	-5.12003e-05	0.00335992
12.8095	12.666	-0.000371766	0.00430619
12.81	12.6665	-0.000954149	0.00346643
12.8105	12.667	-0.000554289	0.00235857
12.8109	12.6674	0.000954317	0.00260719
12.8114	12.6679	-0.000223522	0.0034893
12.8119	12.6684	-0.000474264	0.00425776
12.8124	12.6689	-0.000804567	0.00353273
12.8128	12.6693	-0.000533083	0.00221533
12.8133	12.6698	0.000932309	0.00264938
12.8138	12.6702	-0.000148829	0.00350922
12.8142	12.6707	-0.000414516	0.00407684
12.8147	12.6712	-0.000860052	0.00339031
12.8152	12.6717	-0.000519547	0.00229006
12.8157	12.6721	0.000981391	0.00259694
12.8161	12.6726	-0.000139626	0.00345472
12.8166	12.6731	-0.000501141	0.00419205
12.8171	12.6735	-0.000843715	0.00337688
12.8176	12.674	-0.000693134	0.00220148
12.818	12.6745	0.000995463	0.00268519
12.8185	12.6749	-9.10793e-05	0.00342096
12.819	12.6754	-0.000549955	0.00423113
12.8194	12.6759	-0.000813039	0.00339138
12.8199	12.6764	-0.000616177	0.00224491
12.8204	12.6769	0.00102767	0.00268192
12.8209	12.6774	-0.000119223	0.00343948
12.8213	12.6778	-0.000522614	0.00422662
12.8218	12.6783	-0.000613109	0.00333221
12.8223	12.6788	-0.000623846	0.0022046
12.8227	12.6792	0.00101134	0.0026089
12.8232	12.6797	-8.72092e-05	0.00349225
12.8237	12.6802	-0.000682398	0.004195
12.8242	12.6806	-0.000705405	0.00351544
12.8246	12.6811	-0.000642519	0.00228416
12.8251	12.6816	0.000936911	0.00266839
12.8256	12.6821	-7.75425e-05	0.00347513
12.8261	12.6825	-0.000700803	0.00407421
12.8265	12.683	-0.000648386	0.00341817
12.827	12.6835	-0.000622312	0.00211446
12.8275	12.6839	0.000856885	0.00258588
12.8279	12.6844	-5.7603e-05	0.00358583
12.8284	12.6849	-0.000741485	0.00415903
12.8289	12.6854	-0.000586035	0.00344071
12.8294	12.6859	-0.000701071	0.00216584
12.8298	12.6863	0.00098346	0.00274435
12.8303	12.6868	-4.32637e-05	0.00362942
12.8308	12.6873	-0.000712075	0.00409445
12.8312	12.6878	-0.000565561	0.00331386
12.8317	12.6883	-0.000556358	0.00221829
12.8322	12.6887	0.000998798	0.00266651
12.8327	12.6892	-7.60087e-05	0.00366958
12.8331	12.6896	-0.000775229	0.00425105
12.8336	12.6901	-0.000546888	0.00336523
12.8341	12.6906	-0.000609506	0.00221303
12.8346	12.6911	0.000983727	0.00272879
12.835	12.6915	-3.71285e-05	0.0037085
12.8355	12.692	-0.000897131	0.00409987
12.836	12.6925	-0.00063485	0.00336319
12.8364	12.6929	-0.000557892	0.00210995
12.8369	12.6934	0.00084408	0.0027895
12.8374	12.6938	-8.03426e-05	0.00368326
12.8379	12.6943	-0.000935744	0.00404602
12.8383	12.6948	-0.000522347	0.0032992
12.8388	12.6953	-0.000627181	0.00223762
12.8393	12.6958	0.000896764	0.00275198
12.8397	12.6962	-6.16694e-05	0.00369637
12.8402	12.6967	-0.000811773	0.00411436
12.8407	12.6972	-0.000471999	0.00327338
12.8412	12.6977	-0.000567362	0.0020721
12.8416	12.6981	0.000892163	0.00284679
12.8421	12.6986	-5.31979e-05	0.00367736
12.8426	12.699	-0.000957217	0.00407265
12.8431	12.6995	-0.00042165	0.00321078
12.8435	12.7	-0.000450258	0.00212052
12.844	12.7004	0.000775861	0.00273625
12.8445	12.7009	-0.000131226	0.00370179
12.8449	12.7014	-0.00106178	0.00405209
12.8454	12.7019	-0.000431388	0.00334499
12.8459	12.7023	-0.000489138	0.00216707
12.8464	12.7028	0.000859418	0.00276787
12.8468	12.7033	3.67618e-05	0.00381404
12.8473	12.7037	-0.00109653	0.00399808
12.8478	12.7042	-0.000501141	0.00311237
12.8482	12.7047	-0.000509809	0.00210217
12.8487	12.7052	0.000730578	0.00280942
12.8492	12.7057	-5.96006e-05	0.0037784
12.8497	12.7061	-0.000986627	0.00407093
12.8501	12.7066	-0.000342891	0.00329501
12.8506	12.7071	-0.000361564	0.00218559
12.8511	12.7076	0.000767122	0.00284228
12.8516	12.7081	-7.42074e-05	0.00383445
12.852	12.7085	-0.00107332	0.00410953
12.8525	12.709	-0.00039991	0.00325126
12.853	12.7095	-0.000368502	0.00213035
12.8534	12.7099	0.000619145	0.00288415
12.8539	12.7104	1.32197e-05	0.00393548
12.8544	12.7109	-0.0012323	0.00393269
12.8549	12.7114	-0.000317815	0.00321094
12.8553	12.7118	-0.000298411	0.00210028
12.8558	12.7123	0.000697904	0.00289521
12.8563	12.7128	-5.96006e-05	0.00379101
12.8567	12.7132	-0.00129572	0.0039903
12.8572	12.7137	-0.000298143	0.00307581
12.8577	12.7142	-0.000196377	0.00210028
12.8582	12.7146	0.000576733	0.00289645
12.8586	12.7151	8.04397e-05	0.00383944
12.8591	12.7156	-0.00127425	0.00389951
12.8596	12.7161	-0.000316014	0.00314039
12.8601	12.7166	-0.000276403	0.00221533
12.8605	12.717	0.000567263	0.00273034
12.861	12.7175	-1.02513e-05	0.00389828
12.8615	12.718	-0.00130926	0.00383584
12.8619	12.7185	-0.000486338	0.00307737
12.8624	12.7189	-0.000168501	0.00215118
12.8629	12.7194	0.000645755	0.00290579
12.8634	12.7198	3.74931e-05	0.00402063
12.8638	12.7203	-0.00126351	0.00388255
12.8643	12.7208	-0.000427518	0.00310072
12.8648	12.7213	-0.000172371	0.00213749
12.8652	12.7217	0.000565462	0.0028703
12.8657	12.7222	8.83762e-05	0.00403979
12.8662	12.7227	-0.00137882	0.00381732
12.8667	12.7231	-0.00031835	0.00309229
12.8671	12.7236	-5.06653e-05	0.00223762
12.8676	12.724	0.000434285	0.00284228
12.8681	12.7245	5.64338e-05	0.00402997
12.8686	12.725	-0.00145344	0.00380315
12.869	12.7255	-0.000293274	0.00297601
12.8695	12.726	0.000107584	0.00215199
12.87	12.7264	0.000497974	0.00289054
12.8704	12.7269	5.44362e-05	0.00390918
12.8709	12.7274	-0.00146318	0.00384346
12.8714	12.7279	-0.000307881	0.00298551
12.8719	12.7283	-4.91854e-06	0.00218731
12.8723	12.7288	0.000474699	0.00296994
12.8728	12.7293	0.000129058	0.00410346
12.8733	12.7297	-0.00146164	0.00375209
12.8737	12.7302	-0.00041885	0.00293242
12.8742	12.7307	4.49658e-05	0.00211757
12.8747	12.7312	0.000240294	0.00278156
12.8752	12.7316	7.05055e-05	0.00408478
12.8756	12.7321	-0.00142736	0.00370506
12.8761	12.7326	-0.000353895	0.00292946
12.8766	12.733	1.27558e-05	0.00224008
12.8771	12.7335	0.000340456	0.00288415
12.8775	12.734	0.000142131	0.0041455
12.878	12.7345	-0.00135221	0.00370522
12.8785	12.7349	-0.000341625	0.00283326
12.8789	12.7354	0.000119124	0.00212659
12.8794	12.7359	0.000336657	0.00270076
12.8799	12.7364	0.00015153	0.00417025
12.8804	12.7369	-0.00149819	0.00380503
12.8808	12.7373	-0.000385035	0.00278811
12.8813	12.7378	0.000128523	0.00219993
12.8818	12.7383	0.000183276	0.00292742
12.8822	12.7388	9.96479e-05	0.00425776
12.8827	12.7392	-0.00155394	0.00375988
12.8832	12.7397	-0.000317815	0.00278762
12.8837	12.7402	0.000246162	0.00225818
12.8841	12.7406	0.000181207	0.00288882
12.8846	12.7411	5.1101e-05	0.00415517
12.8851	12.7416	-0.00140696	0.00376643
12.8856	12.7421	-0.000380969	0.0027632
12.886	12.7425	0.000301112	0.00216165
12.8865	12.743	7.81746e-05	0.00298535
12.887	12.7435	0.000205748	0.00428047
12.8874	12.7439	-0.00136728	0.00375193
12.8879	12.7444	-0.000309415	0.00281114
12.8884	12.7449	0.00033432	0.00219402
12.8889	12.7453	0.000238493	0.0029293
12.8893	12.7458	0.000219552	0.00433389
12.8898	12.7463	-0.00140129	0.00370989
12.8903	12.7468	-0.000421383	0.00276132
12.8907	12.7473	0.000241293	0.00221566
12.8912	12.7477	0.00014593	0.00303361
12.8917	12.7482	7.33057e-05	0.00408527
12.8922	12.7487	-0.00142123	0.00359517
12.8926	12.7491	-0.000287674	0.00288448
12.8931	12.7496	0.000390073	0.00234423
12.8936	12.7501	0.000243826	0.00294815
12.8941	12.7505	0.000161	0.00426694
12.8945	12.751	-0.00131106	0.003576
12.895	12.7515	-0.000332155	0.00276787
12.8955	12.7519	0.000353992	0.00233849
12.8959	12.7524	8.12422e-05	0.00301772
12.8964	12.7529	0.000102448	0.00427907
12.8969	12.7533	-0.00149746	0.00350438
12.8974	12.7538	-0.000408042	0.00264471
12.8978	12.7543	0.000412812	0.00233677
12.8983	12.7547	0.000113452	0.00302771
12.8988	12.7552	4.18982e-05	0.00423875
