# 1304     AichiSR QXAFS
# Start     : 8.9544
# End       : 9.0544
# Dir       : Forward
# Points    : 300
# ScanTime  : 1.01549
# Date      : 13.04.23 23:53
# Ring Cur. : 1[mA]
12.7557	12.7563	-0.000544355	0.00221426
12.7562	12.7558	0.000971653	0.0029343
12.7566	12.7553	-0.000175974	0.00373824
12.7571	12.7548	-0.000806904	0.00406814
12.7576	12.7544	-0.000525147	0.0032833
12.7581	12.7539	-0.000553023	0.00225147
12.7585	12.7534	0.000949449	0.00284212
12.759	12.753	-3.17116e-07	0.00379461
12.7595	12.7525	-0.000961087	0.00414427
12.7599	12.752	-0.000458194	0.00329813
12.7604	12.7516	-0.000492206	0.00217394
12.7609	12.7511	0.000824211	0.00269937
12.7614	12.7506	-0.000131957	0.00372858
12.7618	12.7502	-0.00101604	0.00405209
12.7623	12.7497	-0.000447993	0.0032206
12.7628	12.7492	-0.000441322	0.00224868
12.7632	12.7488	0.000843616	0.00282376
12.7637	12.7483	-7.44749e-05	0.00382231
12.7642	12.7478	-0.00107586	0.00398686
12.7647	12.7474	-0.000362296	0.00333393
12.7651	12.7469	-0.000460531	0.00217813
12.7656	12.7464	0.000834145	0.00279353
12.7661	12.7459	-5.12003e-05	0.0037938
12.7666	12.7455	-0.00101397	0.00400243
12.767	12.745	-0.000427786	0.00328969
12.7675	12.7445	-0.000245263	0.00214527
12.768	12.744	0.000772526	0.00287685
12.7684	12.7436	7.99759e-05	0.00372874
12.7689	12.7431	-0.00111167	0.00417868
12.7694	12.7426	-0.000496272	0.00326404
12.7699	12.7422	-0.000269001	0.00223933
12.7703	12.7417	0.000707838	0.00282671
12.7708	12.7412	2.90927e-05	0.00408806
12.7713	12.7407	-0.00118402	0.00400538
12.7717	12.7403	-0.000456126	0.00324224
12.7722	12.7398	-0.000304814	0.00214732
12.7727	12.7393	0.000543988	0.00286407
12.7732	12.7389	0.000149265	0.0039758
12.7736	12.7384	-0.00124051	0.0039095
12.7741	12.7379	-0.000378436	0.00326494
12.7746	12.7375	-0.000175439	0.00209127
12.7751	12.737	0.000483635	0.00279246
12.7755	12.7365	0.000100183	0.00406749
12.776	12.736	-0.00113847	0.00387133
12.7765	12.7355	-0.000368431	0.00314866
12.7769	12.7351	-0.000111019	0.0021842
12.7774	12.7346	0.00059974	0.00286268
12.7779	12.7341	6.56366e-05	0.00399014
12.7784	12.7336	-0.00128779	0.00398563
12.7788	12.7331	-0.000435651	0.00313449
12.7793	12.7327	-0.000192311	0.00219714
12.7798	12.7322	0.00048977	0.00289521
12.7802	12.7317	7.38407e-05	0.00409724
12.7807	12.7313	-0.00142456	0.00385361
12.7812	12.7308	-0.000272604	0.00320627
12.7817	12.7303	-0.000129157	0.00208783
12.7821	12.7298	0.000444291	0.00302411
12.7826	12.7294	8.63786e-05	0.00400538
12.7831	12.7289	-0.00150992	0.00393409
12.7836	12.7284	-0.000400177	0.00314104
12.784	12.728	-1.91866e-05	0.00223606
12.7845	12.7275	0.000487772	0.00295421
12.785	12.727	0.000150995	0.00406749
12.7854	12.7266	-0.00150712	0.00379257
12.7859	12.7261	-0.000200711	0.00309589
12.7864	12.7256	1.48419e-06	0.00236291
12.7869	12.7251	0.000288574	0.00291996
12.7873	12.7246	8.61111e-05	0.00411764
12.7878	12.7242	-0.0014343	0.00384379
12.7883	12.7237	-0.000345156	0.00303828
12.7887	12.7232	6.74379e-05	0.00233366
12.7892	12.7228	0.000343523	0.00296109
12.7897	12.7223	0.000256096	0.00423784
12.7902	12.7219	-0.00142736	0.00378151
12.7906	12.7214	-0.000201513	0.00313137
12.7911	12.7209	0.000103786	0.00229474
12.7916	12.7204	0.000440956	0.00303673
12.7921	12.72	0.000201414	0.00430414
12.7925	12.7195	-0.00158615	0.00376299
12.793	12.719	-0.000285142	0.00293618
12.7935	12.7186	0.000163533	0.00232759
12.7939	12.7181	0.000249961	0.00296839
12.7944	12.7176	0.000183276	0.00426194
12.7949	12.7172	-0.00140949	0.00385157
12.7954	12.7167	-0.000296877	0.00290767
12.7958	12.7162	0.000283241	0.0023008
12.7963	12.7157	0.000173806	0.00297166
12.7968	12.7152	0.000209351	0.00424171
12.7972	12.7148	-0.00150639	0.00369809
12.7977	12.7143	-0.000342624	0.00284023
12.7982	12.7138	0.000270168	0.0022826
12.7987	12.7133	0.000211081	0.00300296
12.7991	12.7129	0.000148462	0.00421121
12.7996	12.7124	-0.00147645	0.00377045
12.8001	12.712	-0.000223986	0.00285613
12.8006	12.7115	0.000402611	0.0024428
12.801	12.711	0.000227756	0.00291652
12.8015	12.7105	0.000101717	0.00435413
12.802	12.7101	-0.00133794	0.00371145
12.8024	12.7096	-0.000340822	0.00281581
12.8029	12.7091	0.000337656	0.00230096
12.8034	12.7087	8.76449e-05	0.00308032
12.8039	12.7082	0.000104249	0.00417492
12.8043	12.7077	-0.0014325	0.00365573
12.8048	12.7072	-0.000339289	0.00276197
12.8053	12.7068	0.000523514	0.00238954
12.8057	12.7063	0.000100914	0.0031149
12.8062	12.7058	0.000173271	0.00427456
12.8067	12.7053	-0.00136475	0.00359345
12.8072	12.7048	-0.00021225	0.00266372
12.8076	12.7043	0.000366334	0.00252376
12.8081	12.7039	0.000175072	0.00305321
12.8086	12.7034	1.0687e-05	0.00435117
12.8091	12.7029	-0.00132893	0.00375381
12.8095	12.7025	-0.000401443	0.00273813
12.81	12.702	0.000596138	0.00244559
12.8105	12.7015	4.80334e-05	0.00319972
12.8109	12.7011	2.17883e-07	0.00431381
12.8114	12.7006	-0.00121263	0.00374071
12.8119	12.7001	-0.000384304	0.00266152
12.8124	12.6996	0.000536587	0.00244608
12.8128	12.6992	7.4572e-05	0.00325297
12.8133	12.6987	-1.35864e-05	0.00429276
12.8138	12.6983	-0.00117068	0.00370538
12.8142	12.6978	-0.000380969	0.00267446
12.8147	12.6973	0.000558256	0.0024537
12.8152	12.6968	-9.78746e-06	0.00317481
12.8157	12.6964	-0.000146564	0.00431987
12.8161	12.6959	-0.0011252	0.00363065
12.8166	12.6954	-0.000456928	0.00261562
12.8171	12.6949	0.000600739	0.00247641
12.8176	12.6945	3.67618e-05	0.00324551
12.818	12.694	-0.000145298	0.00442853
12.8185	12.6935	-0.00118989	0.00362598
12.819	12.693	-0.000535152	0.00259194
12.8194	12.6926	0.00071631	0.00254835
12.8199	12.6921	-2.23254e-05	0.00330591
12.8204	12.6917	-0.000211715	0.00439895
12.8209	12.6912	-0.00102804	0.00360698
12.8213	12.6907	-0.000470732	0.00254335
12.8218	12.6902	0.000806804	0.00250991
12.8223	12.6898	3.39617e-05	0.00318726
12.8227	12.6893	-0.000119954	0.00435675
12.8232	12.6888	-0.00111267	0.00361025
12.8237	12.6884	-0.000450258	0.00247689
12.8242	12.6879	0.00082801	0.00237929
12.8246	12.6874	-0.000117154	0.0032715
12.8251	12.6869	-0.000416247	0.00434945
12.8256	12.6865	-0.000977424	0.00361337
12.8261	12.686	-0.000513144	0.00253589
12.8265	12.6855	0.000839549	0.00256564
12.827	12.685	-3.53272e-05	0.00338032
12.8275	12.6845	-0.000282805	0.00424826
12.8279	12.6841	-0.00101243	0.00346562
12.8284	12.6836	-0.000534885	0.00245821
12.8289	12.6831	0.000811941	0.00257481
12.8294	12.6827	7.15043e-05	0.00339728
12.8298	12.6822	-0.000262331	0.00423269
12.8303	12.6817	-0.000856253	0.00353708
12.8308	12.6813	-0.000599305	0.00249042
12.8312	12.6808	0.001007	0.00268552
12.8317	12.6803	-9.00093e-05	0.00333221
12.8322	12.6798	-0.000409915	0.00434913
12.8327	12.6794	-0.000958287	0.00349225
12.8331	12.6789	-0.00044719	0.00244108
12.8336	12.6784	0.00102821	0.00280336
12.8341	12.678	2.19587e-05	0.00356543
12.8346	12.6775	-0.000411913	0.0044055
12.835	12.677	-0.000807706	0.0035701
12.8355	12.6765	-0.000555823	0.00240871
12.836	12.676	0.00100493	0.00263881
12.8364	12.6756	3.0359e-05	0.00356419
12.8369	12.6751	-0.000510076	0.00431799
12.8374	12.6746	-0.000790032	0.00351716
12.8379	12.6741	-0.000613109	0.00234627
12.8383	12.6736	0.00100953	0.00272707
12.8388	12.6732	-0.000137361	0.0035483
12.8393	12.6727	-0.000530551	0.00422785
12.8397	12.6723	-0.000711273	0.00362147
12.8402	12.6718	-0.000541287	0.00223327
12.8407	12.6713	0.00110977	0.00276631
12.8412	12.6708	-9.56807e-05	0.00356682
12.8416	12.6704	-0.000613911	0.00419409
12.8421	12.6699	-0.000650919	0.00353756
12.8426	12.6694	-0.000462261	0.00234456
12.8431	12.669	0.000968389	0.00276738
12.8435	12.6685	-0.000156034	0.00359017
12.844	12.6681	-0.000669128	0.00426178
12.8445	12.6676	-0.000672927	0.00345923
12.8449	12.6671	-0.000559158	0.00230236
12.8454	12.6666	0.00102054	0.00287202
12.8459	12.6661	-8.4944e-05	0.00362335
12.8464	12.6657	-0.000741485	0.00419221
12.8468	12.6652	-0.000663457	0.00353396
12.8473	12.6647	-0.000546888	0.00237151
12.8478	12.6642	0.00102614	0.00278811
12.8482	12.6638	-0.000135827	0.00369416
12.8487	12.6633	-0.000704406	0.00427456
12.8492	12.6628	-0.000653523	0.00340802
12.8497	12.6624	-0.000578634	0.00226966
12.8501	12.6619	0.000998263	0.0027968
12.8506	12.6615	-7.674e-05	0.0037194
12.8511	12.661	-0.000737151	0.00416247
12.8516	12.6605	-0.000606706	0.00349708
12.852	12.66	-0.000562493	0.00216444
12.8525	12.6596	0.000900367	0.00277222
12.853	12.6591	-6.11344e-05	0.00360698
12.8534	12.6586	-0.00076649	0.00409552
12.8539	12.6582	-0.000603906	0.00341661
12.8544	12.6577	-0.000627716	0.00215011
12.8549	12.6572	0.00104228	0.00278779
12.8553	12.6567	2.11562e-05	0.00376643
12.8558	12.6563	-0.00100683	0.00408682
12.8563	12.6558	-0.000537952	0.00346767
12.8567	12.6553	-0.000553558	0.00217362
12.8572	12.6548	0.000936643	0.00283466
12.8577	12.6543	-7.70075e-05	0.00375161
12.8582	12.6539	-0.000861853	0.00421433
12.8586	12.6534	-0.000539486	0.00333689
12.8591	12.6529	-0.000461262	0.00225941
12.8596	12.6525	0.000848217	0.00287604
12.8601	12.652	2.24225e-05	0.00373046
12.8605	12.6515	-0.0008964	0.00410706
12.861	12.651	-0.000373835	0.0032992
12.8615	12.6506	-0.000454592	0.00222
12.8619	12.6501	0.000789398	0.0027414
12.8624	12.6496	-6.01356e-05	0.00383805
12.8629	12.6492	-0.00106305	0.00408011
12.8634	12.6487	-0.000329354	0.00334344
12.8638	12.6482	-0.000522614	0.00221254
12.8643	12.6477	0.000783066	0.00292028
12.8648	12.6473	7.79071e-05	0.00389361
12.8652	12.6468	-0.001128	0.00410363
12.8657	12.6463	-0.000373835	0.00326044
12.8662	12.6458	-0.000430318	0.00215649
12.8667	12.6453	0.000697369	0.0028703
12.8671	12.6449	1.04195e-05	0.00383616
12.8676	12.6444	-0.0011252	0.00409364
12.8681	12.6439	-0.000475334	0.00321405
12.8686	12.6434	-0.000393774	0.00225409
12.869	12.643	0.000758454	0.00290939
12.8695	12.6425	8.991e-05	0.00391803
12.87	12.6421	-0.00115995	0.00398186
12.8704	12.6416	-0.000356963	0.00314292
12.8709	12.6411	-0.000374834	0.00222467
12.8714	12.6406	0.00065749	0.00289194
12.8719	12.6402	3.98294e-05	0.00391229
12.8723	12.6397	-0.00122463	0.00401676
12.8728	12.6392	-0.000514214	0.00318726
12.8733	12.6388	-0.00014116	0.00227171
12.8737	12.6383	0.000714776	0.00287046
12.8742	12.6379	6.56366e-05	0.00395605
12.8747	12.6374	-0.00120596	0.00404865
12.8752	12.6369	-0.000352094	0.0031907
12.8756	12.6364	-0.0002644	0.00221721
12.8761	12.636	0.000507908	0.00297585
12.8766	12.6355	0.000153331	0.0040974
12.8771	12.635	-0.00129852	0.00388427
12.8775	12.6345	-0.000295611	0.00307828
12.878	12.634	-0.000104616	0.00226424
12.8785	12.6336	0.000585134	0.00292946
12.8789	12.6331	0.000101449	0.00409364
12.8794	12.6326	-0.00149359	0.00388738
12.8799	12.6322	-0.000322684	0.0030691
12.8804	12.6317	-9.30769e-05	0.00212552
12.8808	12.6312	0.000438423	0.00296495
12.8813	12.6308	1.48419e-06	0.00404774
12.8818	12.6303	-0.00128725	0.00390311
12.8822	12.6298	-0.000393507	0.0029329
12.8827	12.6293	3.5228e-05	0.00233693
12.8832	12.6289	0.000404679	0.00292012
12.8837	12.6284	0.000348392	0.00408806
12.8841	12.6279	-0.00135788	0.00386247
12.8846	12.6275	-0.000395308	0.00300747
12.8851	12.627	-1.84553e-05	0.00213765
12.8856	12.6265	0.000437086	0.00302164
12.886	12.626	0.000201878	0.0041324
12.8865	12.6255	-0.00142276	0.00378634
12.887	12.6251	-0.000345959	0.00304746
12.8874	12.6246	4.08282e-05	0.00225786
12.8879	12.6241	0.00038474	0.0030087
12.8884	12.6236	0.000188609	0.00418802
12.8889	12.6232	-0.00144757	0.00375692
12.8893	12.6227	-0.000257729	0.00309278
12.8898	12.6222	0.000112186	0.00219542
12.8903	12.6218	0.000370401	0.00299158
12.8907	12.6213	0.000213417	0.00418442
12.8912	12.6208	-0.00146651	0.00380068
12.8917	12.6203	-0.000388905	0.00299781
12.8922	12.6198	0.000169401	0.00223106
12.8926	12.6194	0.000273236	0.00301853
12.8931	12.6189	0.00022262	0.00429324
12.8936	12.6185	-0.0014215	0.00376331
12.8941	12.618	-0.000243729	0.00291733
12.8945	12.6175	0.000190945	0.00227171
12.895	12.617	0.000203483	0.0029824
12.8955	12.6166	0.000187877	0.0043334
12.8959	12.6161	-0.00143403	0.00382199
12.8964	12.6156	-0.000258532	0.00285162
12.8969	12.6151	0.00025763	0.00231342
12.8974	12.6147	0.000157398	0.00312096
12.8978	12.6142	0.00019321	0.00426071
12.8983	12.6137	-0.00129446	0.00367408
12.8988	12.6132	-0.000413981	0.00291234
