# 1304     AichiSR QXAFS
# Start     : 8.9544
# End       : 9.0544
# Dir       : Backward
# Points    : 300
# ScanTime  : 1.01549
# Date      : 13.04.24 00:19
# Ring Cur. : 1[mA]
12.7557	12.6124	-0.000391973	0.00318603
12.7562	12.6129	-0.000188975	0.00210184
12.7566	12.6133	0.00063195	0.0029125
12.7571	12.6138	-1.41214e-05	0.00394187
12.7576	12.6143	-0.00126885	0.00388099
12.7581	12.6147	-0.00035336	0.0031376
12.7585	12.6152	-9.28806e-05	0.00215682
12.759	12.6157	0.000600472	0.00274328
12.7595	12.6162	0.00011932	0.00398219
12.7599	12.6166	-0.00120416	0.00387025
12.7604	12.6171	-0.00027	0.0030632
12.7609	12.6176	-7.29411e-05	0.00209454
12.7614	12.6181	0.000414613	0.0029956
12.7618	12.6185	8.61111e-05	0.00398047
12.7623	12.619	-0.00128806	0.00382478
12.7628	12.6195	-0.000163703	0.00310458
12.7632	12.6199	-6.60034e-05	0.00217051
12.7637	12.6204	0.000479033	0.0027909
12.7642	12.6209	0.000189411	0.00408634
12.7647	12.6214	-0.00134634	0.00377389
12.7651	12.6218	-0.000329818	0.00296699
12.7656	12.6223	9.75791e-05	0.00223246
12.7661	12.6228	0.000474432	0.00285613
12.7666	12.6232	0.0001554	0.0040443
12.767	12.6237	-0.00139876	0.00373341
12.7675	12.6242	-0.000198713	0.00299313
12.768	12.6247	0.000135193	0.00203554
12.7684	12.6251	0.000411546	0.00283294
12.7689	12.6256	0.000321051	0.00410658
12.7694	12.6261	-0.00145704	0.00373137
12.7699	12.6266	-0.000316549	0.0029679
12.7703	12.6271	0.000101449	0.00219386
12.7708	12.6275	0.000356061	0.00285957
12.7713	12.628	0.000244093	0.00407045
12.7717	12.6285	-0.00137295	0.00379257
12.7722	12.6289	-0.000346494	0.00291561
12.7727	12.6294	0.000153064	0.00227621
12.7732	12.6299	0.000308246	0.00279434
12.7736	12.6303	0.000267635	0.00422802
12.7741	12.6308	-0.00139696	0.00370367
12.7746	12.6313	-0.000305349	0.00280507
12.7751	12.6318	0.000147196	0.00220927
12.7755	12.6322	0.000267635	0.00282794
12.776	12.6327	0.000223619	0.00417975
12.7765	12.6332	-0.00145551	0.00372734
12.7769	12.6336	-0.000268002	0.00278623
12.7774	12.6341	0.000363267	0.00207586
12.7779	12.6346	0.00025203	0.00294331
12.7784	12.635	0.000203412	0.00425932
12.7788	12.6355	-0.0014417	0.00367408
12.7793	12.636	-0.000237326	0.00285022
12.7798	12.6365	0.000350461	0.00213502
12.7802	12.6369	0.00021595	0.0029824
12.7807	12.6374	0.000257898	0.00426522
12.7812	12.6379	-0.00145731	0.00360918
12.7817	12.6384	-0.000333956	0.00280507
12.7821	12.6388	0.000415416	0.00228432
12.7826	12.6393	0.000219552	0.00300682
12.7831	12.6398	0.000166868	0.00420032
12.7836	12.6402	-0.00138369	0.00357632
12.784	12.6407	-0.000371231	0.00268224
12.7845	12.6412	0.000486435	0.00228121
12.785	12.6416	0.000137993	0.00297011
12.7854	12.6421	0.000101984	0.00423752
12.7859	12.6426	-0.00140643	0.0037085
12.7864	12.643	-0.000304279	0.0026679
12.7869	12.6435	0.000512777	0.00233087
12.7873	12.644	0.000169204	0.00300543
12.7878	12.6444	0.000191676	0.00429996
12.7883	12.6449	-0.0013402	0.00365696
12.7887	12.6454	-0.000345959	0.00270838
12.7892	12.6459	0.000592535	0.0022731
12.7897	12.6464	9.73116e-05	0.00310539
12.7902	12.6468	0.000115521	0.00423064
12.7906	12.6473	-0.00128932	0.00355887
12.7911	12.6478	-0.000339556	0.00263382
12.7916	12.6483	0.000621678	0.00235717
12.7921	12.6487	2.49551e-05	0.00299641
12.7925	12.6492	5.36337e-05	0.00423596
12.793	12.6497	-0.00121137	0.00365294
12.7935	12.6501	-0.000372301	0.00258555
12.7939	12.6506	0.000717041	0.00243502
12.7944	12.6511	2.17883e-07	0.00316923
12.7949	12.6516	-0.000123557	0.00423687
12.7954	12.6521	-0.00110373	0.00365556
12.7958	12.6525	-0.000523149	0.00258915
12.7963	12.653	0.000666158	0.00233398
12.7968	12.6534	-1.07863e-05	0.0032111
12.7972	12.6539	-0.000145494	0.00419065
12.7977	12.6544	-0.00105411	0.00363033
12.7982	12.6549	-0.000311145	0.00254351
12.7987	12.6554	0.000716042	0.00248205
12.7991	12.6558	7.89771e-05	0.00320594
12.7996	12.6563	-0.000204046	0.00427038
12.8001	12.6568	-0.00114261	0.00367892
12.8006	12.6573	-0.000480934	0.00257653
12.801	12.6577	0.000875558	0.00239405
12.8015	12.6582	6.77054e-05	0.00335713
12.802	12.6587	-0.00020278	0.00427022
12.8024	12.6591	-0.00113187	0.00353912
12.8029	12.6596	-0.000455858	0.00241494
12.8034	12.6601	0.000897834	0.00252639
12.8039	12.6605	-3.99286e-05	0.00330108
12.8043	12.661	-0.000287139	0.00416869
12.8048	12.6615	-0.000964351	0.00346906
12.8053	12.662	-0.000363366	0.00238536
12.8057	12.6624	0.000907501	0.00254008
12.8062	12.6629	-5.29304e-05	0.00328288
12.8067	12.6634	-0.000194379	0.00435912
12.8072	12.6638	-0.000901001	0.00351937
12.8076	12.6643	-0.00054102	0.00229801
12.8081	12.6648	0.000788131	0.00256499
12.8086	12.6652	-4.56e-05	0.00342595
12.8091	12.6657	-0.000427786	0.00419844
12.8095	12.6662	-0.00087646	0.00343808
12.81	12.6667	-0.000541822	0.0023371
12.8105	12.6672	0.00100313	0.00264488
12.8109	12.6676	-0.000175171	0.00339293
12.8114	12.6681	-0.000332886	0.00416435
12.8119	12.6686	-0.000826112	0.00352667
12.8124	12.669	-0.000528018	0.00228367
12.8128	12.6695	0.00101134	0.00267118
12.8133	12.67	-2.73907e-05	0.00336942
12.8138	12.6704	-0.000461797	0.00413133
12.8142	12.6709	-0.000815839	0.00353477
12.8147	12.6714	-0.000574496	0.00230768
12.8152	12.6718	0.00108622	0.00271617
12.8157	12.6723	-6.9606e-05	0.00336802
12.8161	12.6728	-0.000534885	0.00422957
12.8166	12.6732	-0.000748619	0.00351453
12.8171	12.6737	-0.00059597	0.0021864
12.8176	12.6742	0.00113097	0.00265078
12.818	12.6746	-6.88035e-05	0.0034784
12.8185	12.6751	-0.000587569	0.00413026
12.819	12.6756	-0.000811505	0.00346111
12.8194	12.6761	-0.000625647	0.00220009
12.8199	12.6766	0.00108622	0.00271198
12.8204	12.6771	-0.000158032	0.00348758
12.8209	12.6775	-0.000552755	0.00428546
12.8213	12.678	-0.000686464	0.00352307
12.8218	12.6785	-0.000579365	0.00211962
12.8223	12.679	0.00097786	0.00276631
12.8227	12.6794	-1.41214e-05	0.00353928
12.8232	12.6799	-0.000786964	0.00420901
12.8237	12.6804	-0.000595702	0.00343325
12.8242	12.6808	-0.000571696	0.00209921
12.8246	12.6813	0.00100267	0.00266512
12.8251	12.6818	-0.000127356	0.00363425
12.8256	12.6822	-0.000719477	0.00408167
12.8261	12.6827	-0.00070767	0.00338843
12.8265	12.6832	-0.000461993	0.00216739
12.827	12.6836	0.00104201	0.00269732
12.8275	12.6841	-6.01356e-05	0.00357444
12.8279	12.6846	-0.000756021	0.00412199
12.8284	12.6851	-0.00065379	0.00340834
12.8289	12.6856	-0.000491938	0.00214871
12.8294	12.686	0.000947647	0.00277721
12.8298	12.6865	-3.38473e-06	0.00375504
12.8303	12.687	-0.00076929	0.00410411
12.8308	12.6875	-0.000593437	0.00338638
12.8312	12.688	-0.00049654	0.0021624
12.8317	12.6884	0.000929509	0.00270543
12.8322	12.6889	-1.31593e-06	0.00360419
12.8327	12.6893	-0.000975623	0.00403668
12.8331	12.6898	-0.000327821	0.00328051
12.8336	12.6903	-0.000510344	0.00206759
12.8341	12.6907	0.000859685	0.00272927
12.8346	12.6912	-4.8864e-05	0.00372439
12.835	12.6917	-0.000932408	0.0040756
12.8355	12.6922	-0.000459996	0.00335074
12.836	12.6926	-0.000576565	0.00221238
12.8364	12.6931	0.000858419	0.00277173
12.8369	12.6935	-6.8536e-05	0.00371768
12.8374	12.694	-0.00103137	0.00406003
12.8379	12.6945	-0.000430051	0.00318259
12.8383	12.695	-0.000408042	0.00212069
12.8388	12.6954	0.000810871	0.00279573
12.8393	12.6959	3.5763e-05	0.00376283
12.8397	12.6964	-0.00104698	0.00400382
12.8402	12.6969	-0.000390974	0.00319848
12.8407	12.6974	-0.000323754	0.00214699
12.8412	12.6978	0.000775593	0.00278049
12.8416	12.6983	3.90269e-05	0.0039576
12.8421	12.6988	-0.00109859	0.00402127
12.8426	12.6992	-0.0003733	0.00321593
12.8431	12.6997	-0.000254929	0.00212675
12.8435	12.7001	0.000753121	0.00278376
12.844	12.7006	-5.49992e-05	0.00391213
12.8445	12.7011	-0.00113287	0.00396973
12.8449	12.7016	-0.000367432	0.00316423
12.8454	12.7021	-0.000315283	0.0022046
12.8459	12.7025	0.000727046	0.00286965
12.8464	12.703	0.000172004	0.00388566
12.8468	12.7034	-0.00116662	0.00389409
12.8473	12.7039	-0.000278739	0.00315908
12.8478	12.7044	-0.000155499	0.00217829
12.8482	12.7049	0.000569796	0.00283154
12.8487	12.7054	8.2776e-05	0.00393409
12.8492	12.7058	-0.00129499	0.00402218
12.8497	12.7063	-0.000373032	0.00311564
12.8501	12.7068	-9.36119e-05	0.00222811
12.8506	12.7073	0.000613277	0.00281114
12.8511	12.7078	0.000127791	0.00394359
12.8516	12.7082	-0.00125278	0.00380798
12.852	12.7087	-0.000289475	0.00315817
12.8525	12.7092	-7.70075e-05	0.00225147
12.853	12.7096	0.000552389	0.00284555
12.8534	12.7101	0.000202146	0.00400866
12.8539	12.7106	-0.00132233	0.00385764
12.8544	12.7111	-0.000266736	0.0030305
12.8549	12.7115	-3.48634e-05	0.00207151
12.8553	12.712	0.000408478	0.00297134
12.8558	12.7125	0.000218019	0.00410019
12.8563	12.7129	-0.00134941	0.00383584
12.8567	12.7134	-0.000336756	0.0029679
12.8572	12.7139	2.01919e-06	0.00223123
12.8577	12.7143	0.000575931	0.00291578
12.8582	12.7148	0.000109653	0.00411264
12.8586	12.7153	-0.00142123	0.00379397
12.8591	12.7158	-0.000295076	0.00311629
12.8596	12.7163	3.36942e-05	0.00220975
12.8601	12.7167	0.000400809	0.00284023
12.8605	12.7172	0.000150264	0.00417476
12.861	12.7177	-0.00144964	0.00383616
12.8615	12.7182	-0.00035056	0.00286579
12.8619	12.7186	0.000214951	0.00221082
12.8624	12.7191	0.000414613	0.00293225
12.8629	12.7196	0.000348125	0.00418598
12.8634	12.72	-0.00141436	0.00378839
12.8638	12.7205	-0.000279738	0.0028127
12.8643	12.721	0.000229754	0.00225335
12.8648	12.7214	0.000350996	0.00287964
12.8652	12.7219	0.000264568	0.00417492
12.8657	12.7224	-0.00144404	0.00380191
12.8662	12.7228	-0.000300212	0.00292291
12.8667	12.7233	0.000223619	0.00223294
12.8671	12.7237	0.000391071	0.00294348
12.8676	12.7242	0.000227756	0.00419876
12.8681	12.7247	-0.00149512	0.00373915
12.8686	12.7252	-0.00037717	0.00280212
12.869	12.7257	0.000333322	0.00227261
12.8695	12.7261	0.000247161	0.00302927
12.87	12.7266	0.000187075	0.00433512
12.8704	12.7271	-0.00131187	0.00375365
12.8709	12.7276	-0.000325752	0.00291733
12.8714	12.728	0.000348125	0.0022636
12.8719	12.7285	0.000212151	0.0029883
12.8723	12.729	0.000232822	0.00431053
12.8728	12.7294	-0.00136961	0.00365663
12.8733	12.7299	-0.000309415	0.00273657
12.8737	12.7304	0.00042255	0.00245042
12.8742	12.7308	0.000258433	0.00303082
12.8747	12.7313	0.00021422	0.0044164
12.8752	12.7318	-0.00129346	0.0036917
12.8756	12.7323	-0.000400641	0.0027909
12.8761	12.7327	0.00042922	0.00233865
12.8766	12.7332	0.000179673	0.00302411
12.8771	12.7337	0.000237958	0.00432406
12.8775	12.7342	-0.00118322	0.00376922
12.878	12.7346	-0.000319617	0.0025812
12.8785	12.7351	0.000510245	0.00240978
12.8789	12.7356	0.000172468	0.00318415
12.8794	12.7361	0.000195011	0.00439568
12.8799	12.7366	-0.00115435	0.00359533
12.8804	12.737	-0.000404244	0.00259661
12.8808	12.7375	0.000609942	0.00224975
12.8813	12.738	0.000102716	0.00314973
12.8818	12.7385	0.000190945	0.00427644
12.8822	12.7389	-0.00130213	0.00361836
12.8827	12.7394	-0.000392508	0.00258539
12.8832	12.7399	0.000672561	0.00240511
12.8837	12.7403	0.000165602	0.00309245
12.8841	12.7408	-5.48029e-05	0.00432905
12.8846	12.7413	-0.00126558	0.00368015
12.8851	12.7418	-0.000435187	0.0026729
12.8856	12.7422	0.000598207	0.00248328
12.886	12.7427	-5.37329e-05	0.00312343
12.8865	12.7432	-8.36777e-05	0.00431037
12.887	12.7436	-0.00105312	0.00340957
12.8874	12.7441	-0.000337024	0.0026402
12.8879	12.7446	0.000668494	0.00238504
12.8884	12.745	7.89771e-05	0.0032919
12.8889	12.7455	-0.000117154	0.00422957
12.8893	12.746	-0.00116021	0.00349537
12.8898	12.7465	-0.00031168	0.0026897
12.8903	12.747	0.00076359	0.00241993
12.8907	12.7474	6.62061e-06	0.00319881
12.8912	12.7479	-9.77495e-05	0.00430881
12.8917	12.7484	-0.00117248	0.0036277
12.8922	12.7488	-0.000396842	0.0025018
12.8926	12.7493	0.000864822	0.00249246
12.8931	12.7498	3.74931e-06	0.00328911
12.8936	12.7502	-0.000211983	0.00421196
12.8941	12.7507	-0.000924008	0.00354052
12.8945	12.7512	-0.000457927	0.00248795
12.895	12.7517	0.000901366	0.00247657
12.8955	12.7521	-4.68663e-05	0.0033291
12.8959	12.7526	-0.000218653	0.00417664
12.8964	12.753	-0.000965885	0.00347217
12.8969	12.7535	-0.000522882	0.00244371
12.8974	12.754	0.000856154	0.00247845
12.8978	12.7544	7.88692e-06	0.00333001
12.8983	12.7549	-0.000392704	0.00410346
12.8988	12.7554	-0.000831712	0.00348447
