# 1304     AichiSR QXAFS
# Start     : 8.9544
# End       : 9.0544
# Dir       : Forward
# Points    : 300
# ScanTime  : 1.01549
# Date      : 13.04.23 23:05
# Ring Cur. : 0.9[mA]
12.7557	12.7561	0.00100286	0.00274435
12.7562	12.7556	-0.000140892	0.0034798
12.7566	12.7552	-0.000722812	0.00422458
12.7571	12.7547	-0.000631782	0.00334328
12.7576	12.7542	-0.000688265	0.00216117
12.7581	12.7537	0.000915437	0.00285613
12.7585	12.7533	-0.000141427	0.00358304
12.759	12.7528	-0.000732746	0.00413927
12.7595	12.7524	-0.000606974	0.00341285
12.7599	12.7519	-0.000523149	0.00214264
12.7604	12.7514	0.000829277	0.00269888
12.7609	12.751	-9.38794e-05	0.00364606
12.7614	12.7505	-0.000700268	0.0041083
12.7618	12.75	-0.000514143	0.00333221
12.7623	12.7495	-0.000681666	0.00230703
12.7628	12.7491	0.000987062	0.00273346
12.7632	12.7486	-9.23456e-05	0.00377684
12.7637	12.7482	-0.000859856	0.00409879
12.7642	12.7477	-0.000610041	0.00331648
12.7647	12.7472	-0.000559426	0.00217394
12.7651	12.7467	0.000940246	0.00275509
12.7656	12.7463	-9.51996e-06	0.00371628
12.7661	12.7458	-0.00094368	0.00412215
12.7666	12.7453	-0.000528749	0.00330215
12.767	12.7448	-0.000519279	0.00206587
12.7675	12.7443	0.000890896	0.0027814
12.768	12.7439	7.88692e-06	0.00370898
12.7684	12.7434	-0.000932676	0.00417041
12.7689	12.7429	-0.000519279	0.00321684
12.7694	12.7425	-0.000580631	0.00215601
12.7699	12.742	0.00085075	0.00288743
12.7703	12.7415	-7.60087e-05	0.00373529
12.7708	12.7411	-0.00107352	0.00409879
12.7713	12.7406	-0.00041498	0.00320144
12.7717	12.7401	-0.000517549	0.00224958
12.7722	12.7396	0.000728313	0.00279229
12.7727	12.7392	-5.68005e-05	0.00374243
12.7732	12.7387	-0.00100403	0.00407979
12.7736	12.7382	-0.000430586	0.00324347
12.7741	12.7378	-0.000495006	0.00214109
12.7746	12.7373	0.000808071	0.0026729
12.7751	12.7368	-0.000114086	0.00376455
12.7755	12.7363	-0.00103904	0.00402562
12.776	12.7359	-0.000445121	0.00318152
12.7765	12.7354	-0.000359032	0.00217829
12.7769	12.7349	0.000839014	0.00283621
12.7774	12.7344	6.88811e-06	0.00379241
12.7779	12.7339	-0.00104211	0.0039962
12.7784	12.7335	-0.000401176	0.00325109
12.7788	12.733	-0.000497806	0.00219542
12.7793	12.7325	0.000678232	0.00286268
12.7798	12.7321	-1.69215e-05	0.00382994
12.7802	12.7316	-0.00103471	0.00399931
12.7807	12.7311	-0.000359228	0.00317717
12.7812	12.7306	-0.000292276	0.00208676
12.7817	12.7301	0.000562127	0.00279434
12.7821	12.7297	-5.88693e-05	0.00387788
12.7826	12.7292	-0.00128372	0.00385173
12.7831	12.7288	-0.000496807	0.00320176
12.7836	12.7283	-0.000276403	0.00211806
12.784	12.7278	0.00052198	0.00290407
12.7845	12.7273	0.000119587	0.00397317
12.785	12.7269	-0.00117095	0.00394499
12.7854	12.7264	-0.00040831	0.00312203
12.7859	12.7259	-0.000118955	0.00221099
12.7864	12.7254	0.000611476	0.00282064
12.7869	12.725	-3.81273e-05	0.00391385
12.7873	12.7245	-0.00119296	0.00391417
12.7878	12.724	-0.000356696	0.00319897
12.7883	12.7235	-0.000100282	0.00215977
12.7887	12.7231	0.000623746	0.00285457
12.7892	12.7226	0.000159734	0.00399014
12.7897	12.7222	-0.00135121	0.0037893
12.7902	12.7217	-0.000377901	0.00314882
12.7906	12.7212	9.68823e-06	0.00222344
12.7911	12.7207	0.000469563	0.00285162
12.7916	12.7203	7.94409e-05	0.0039976
12.7921	12.7198	-0.00125738	0.00375397
12.7925	12.7193	-0.000430853	0.00310024
12.793	12.7189	-0.000134026	0.00218747
12.7935	12.7184	0.000536052	0.00276862
12.7939	12.718	0.000109653	0.00405037
12.7944	12.7175	-0.00142123	0.0037974
12.7949	12.717	-0.000517014	0.00305852
12.7954	12.7165	-3.71285e-05	0.00221566
12.7958	12.716	0.000488771	0.00290176
12.7963	12.7156	8.25085e-05	0.00411453
12.7968	12.7151	-0.00144424	0.00393843
12.7972	12.7146	-0.000298143	0.00302846
12.7977	12.7141	1.83561e-05	0.00233275
12.7982	12.7137	0.000339724	0.00283933
12.7987	12.7132	0.000211883	0.00408773
12.7991	12.7127	-0.00146318	0.00387804
12.7996	12.7123	-0.000350293	0.00306835
12.8001	12.7118	2.269e-05	0.00219198
12.8006	12.7113	0.000376536	0.00291996
12.801	12.7108	0.000204214	0.00416058
12.8015	12.7104	-0.00138469	0.00383879
12.802	12.7099	-0.000431852	0.00307925
12.8024	12.7094	1.57523e-05	0.0022527
12.8029	12.709	0.000444291	0.00293521
12.8034	12.7085	0.000194744	0.004096
12.8039	12.708	-0.00142943	0.00381871
12.8043	12.7076	-0.000313481	0.00290783
12.8048	12.7071	0.000120122	0.00217378
12.8053	12.7066	0.000301379	0.00294503
12.8057	12.7061	0.000162267	0.00419532
12.8062	12.7056	-0.00146271	0.00376176
12.8067	12.7051	-0.000361297	0.0029343
12.8072	12.7047	0.000210617	0.00223697
12.8076	12.7042	0.000296243	0.00290767
12.8081	12.7037	0.000195011	0.00415984
12.8086	12.7032	-0.00136195	0.00374849
12.8091	12.7028	-0.000323487	0.00295765
12.8095	12.7023	9.4779e-05	0.00231374
12.81	12.7018	0.000218019	0.00302878
12.8105	12.7014	0.000245895	0.00431644
12.8109	12.7009	-0.00140516	0.00372841
12.8114	12.7004	-0.000289743	0.00285489
12.8119	12.6999	0.000242292	0.0022513
12.8124	12.6995	0.000241561	0.00296822
12.8128	12.699	0.000170738	0.00411002
12.8133	12.6986	-0.00146291	0.00377437
12.8138	12.6981	-0.000327018	0.00288152
12.8142	12.6976	0.000288841	0.00221566
12.8147	12.6971	0.0002671	0.0030487
12.8152	12.6967	0.000191409	0.00408666
12.8157	12.6962	-0.00140743	0.00367597
12.8161	12.6957	-0.000403512	0.00283556
12.8166	12.6952	0.000324119	0.00215199
12.8171	12.6948	0.00011932	0.00293602
12.8176	12.6943	0.000161	0.00419565
12.818	12.6938	-0.00141843	0.00369948
12.8185	12.6933	-0.000321953	0.00282515
12.819	12.6929	0.000303181	0.00231235
12.8194	12.6924	7.66408e-05	0.00301354
12.8199	12.692	8.12422e-05	0.0042249
12.8204	12.6915	-0.00138775	0.00368842
12.8209	12.691	-0.000351827	0.00284539
12.8213	12.6905	0.000363998	0.00225737
12.8218	12.6901	0.000233892	0.0031317
12.8223	12.6896	0.000181939	0.00416091
12.8227	12.6891	-0.00141923	0.00373824
12.8232	12.6887	-0.000304279	0.0028608
12.8237	12.6882	0.000444826	0.00215011
12.8242	12.6877	0.000142327	0.00312719
12.8246	12.6873	0.000214148	0.00431832
12.8251	12.6868	-0.00127118	0.00365819
12.8256	12.6863	-0.000425449	0.00266683
12.8261	12.6858	0.00052198	0.00231202
12.8265	12.6853	0.000161535	0.00306599
12.827	12.6849	-3.04583e-05	0.00421384
12.8275	12.6844	-0.00131946	0.00364515
12.8279	12.6839	-0.000317548	0.00263398
12.8284	12.6834	0.00049924	0.00235873
12.8289	12.683	8.73774e-05	0.00308155
12.8294	12.6825	3.67618e-05	0.00412838
12.8298	12.682	-0.00130573	0.00362426
12.8303	12.6816	-0.000378704	0.00258432
12.8308	12.6811	0.000613812	0.00223294
12.8312	12.6806	6.3104e-05	0.00312982
12.8317	12.6801	8.58436e-05	0.00429792
12.8322	12.6797	-0.00120876	0.00369416
12.8327	12.6792	-0.000392776	0.00270076
12.8331	12.6787	0.000700437	0.0023729
12.8336	12.6783	-2.23254e-05	0.0031485
12.8341	12.6778	-8.84755e-05	0.00428595
12.8346	12.6773	-0.00118836	0.00359689
12.835	12.6768	-0.000365167	0.00270576
12.8355	12.6764	0.000673559	0.00245698
12.836	12.6759	2.70239e-05	0.00308499
12.8364	12.6754	-1.99891e-05	0.00430071
12.8369	12.6749	-0.00123644	0.00370195
12.8374	12.6744	-0.000339556	0.00262136
12.8379	12.674	0.000678963	0.00250385
12.8383	12.6735	-6.22044e-05	0.00331665
12.8388	12.673	-6.22044e-05	0.00423145
12.8393	12.6726	-0.00117916	0.00360295
12.8397	12.6721	-0.00048887	0.00265684
12.8402	12.6716	0.000715775	0.00251909
12.8407	12.6712	-5.58017e-05	0.00329485
12.8412	12.6707	-0.000252664	0.00437716
12.8416	12.6702	-0.00108912	0.00369014
12.8421	12.6697	-0.000519279	0.00243453
12.8426	12.6693	0.000727046	0.00254728
12.8431	12.6688	-3.48634e-05	0.00330559
12.8435	12.6684	-0.000194843	0.00419344
12.844	12.6679	-0.000992494	0.00368064
12.8445	12.6674	-0.000531817	0.00234472
12.8449	12.6669	0.000939711	0.00259071
12.8454	12.6665	1.80886e-05	0.00333533
12.8459	12.666	-0.000106417	0.00425137
12.8464	12.6655	-0.00107459	0.00352388
12.8468	12.665	-0.000413446	0.0025608
12.8473	12.6645	0.000823676	0.00247657
12.8478	12.6641	-8.31427e-05	0.0032869
12.8482	12.6636	-0.000370232	0.00424015
12.8487	12.6631	-0.000929876	0.00359017
12.8492	12.6627	-0.000576298	0.00248919
12.8497	12.6622	0.000952516	0.00248623
12.8501	12.6618	-1.61902e-05	0.00340695
12.8506	12.6613	-0.000405046	0.00432717
12.8511	12.6608	-0.000956486	0.00357788
12.8516	12.6603	-0.000418315	0.00244871
12.852	12.6599	0.000821608	0.00253794
12.8525	12.6594	-0.00013276	0.00329297
12.853	12.6589	-0.000403709	0.00430119
12.8534	12.6585	-0.000871591	0.00360902
12.8539	12.658	-0.000567095	0.00239003
12.8544	12.6575	0.000933843	0.00254851
12.8549	12.657	-8.62104e-05	0.00337736
12.8553	12.6566	-0.000479668	0.00431209
12.8558	12.6561	-0.000776959	0.0035578
12.8563	12.6556	-0.00050601	0.00241011
12.8567	12.6551	0.000905236	0.00264831
12.8572	12.6546	-0.000109217	0.00340023
12.8577	12.6542	-0.000528482	0.0042213
12.8582	12.6537	-0.000853917	0.00353117
12.8586	12.6532	-0.000571964	0.00236791
12.8591	12.6528	0.00094458	0.00256859
12.8596	12.6523	-2.30567e-05	0.0034376
12.8601	12.6518	-0.000404244	0.00420032
12.8605	12.6514	-0.00094368	0.00353305
12.861	12.6509	-0.000460727	0.0023911
12.8615	12.6504	0.000970387	0.00257777
12.8619	12.6499	-0.00013276	0.00339014
12.8624	12.6494	-0.000489869	0.00429153
12.8629	12.649	-0.00078263	0.00350004
12.8634	12.6485	-0.0005771	0.00231514
12.8638	12.648	0.00107089	0.002721
12.8643	12.6476	-0.000126624	0.00350208
12.8648	12.6471	-0.000627181	0.00423736
12.8652	12.6466	-0.000843715	0.00343325
12.8657	12.6461	-0.000656323	0.00230284
12.8662	12.6457	0.00101747	0.00252467
12.8667	12.6452	-6.01356e-05	0.00345489
12.8671	12.6447	-0.000574032	0.00409584
12.8676	12.6442	-0.00067266	0.00340802
12.8681	12.6437	-0.000627644	0.00219058
12.8686	12.6433	0.000955316	0.00273034
12.869	12.6428	-4.29962e-05	0.00344087
12.8695	12.6424	-0.000737347	0.00407061
12.87	12.6419	-0.000743019	0.00343293
12.8704	12.6414	-0.000680329	0.00226811
12.8709	12.641	0.000925175	0.00272428
12.8714	12.6405	-7.11398e-05	0.00357198
12.8719	12.64	-0.000727609	0.00411715
12.8723	12.6395	-0.000726611	0.00336738
12.8728	12.6391	-0.000662993	0.00222451
12.8733	12.6386	0.000994196	0.00271633
12.8737	12.6382	-3.04583e-05	0.00358411
12.8742	12.6377	-0.00076369	0.00420171
12.8747	12.6372	-0.000626378	0.00336459
12.8752	12.6367	-0.000675531	0.00224991
12.8756	12.6362	0.000983727	0.00262587
12.8761	12.6358	-0.000107951	0.00354331
12.8766	12.6353	-0.000770824	0.00408511
12.8771	12.6348	-0.00064152	0.00342751
12.8775	12.6343	-0.000531282	0.00219354
12.878	12.6339	0.000986795	0.00278451
12.8785	12.6334	-6.4737e-05	0.00359689
12.8789	12.6329	-0.000933942	0.00406127
12.8794	12.6325	-0.000549224	0.00332459
12.8799	12.632	-0.000665526	0.00211725
12.8804	12.6315	0.000975791	0.0027319
12.8808	12.6311	-0.000154429	0.00361025
12.8813	12.6306	-0.000924008	0.00412854
12.8818	12.6301	-0.000602372	0.00335262
12.8822	12.6296	-0.000577296	0.00229941
12.8827	12.6292	0.000844347	0.00276288
12.8832	12.6287	-9.36119e-05	0.00361648
12.8837	12.6282	-0.000969487	0.00401644
12.8841	12.6278	-0.000536419	0.00333377
12.8846	12.6273	-0.000556358	0.00211945
12.8851	12.6268	0.000865357	0.00284212
12.8856	12.6263	-7.14073e-05	0.00366491
12.886	12.6259	-0.000888463	0.00421089
12.8865	12.6254	-0.000545621	0.0033014
12.887	12.6249	-0.000513144	0.00213642
12.8874	12.6244	0.000869691	0.00280491
12.8879	12.6239	-0.000172104	0.00370276
12.8884	12.6235	-0.00103391	0.00404307
12.8889	12.623	-0.000375636	0.00326838
12.8893	12.6225	-0.000488139	0.00217362
12.8898	12.6221	0.000753121	0.00278049
12.8903	12.6216	6.89717e-05	0.00375864
12.8907	12.6211	-0.000961818	0.0039976
12.8912	12.6206	-0.000460459	0.00329813
12.8917	12.6202	-0.00055049	0.0021864
12.8922	12.6197	0.000812672	0.0028127
12.8926	12.6192	3.82956e-05	0.00380986
12.8931	12.6188	-0.00120469	0.00408682
12.8936	12.6183	-0.000387372	0.00328207
12.8941	12.6178	-0.000341892	0.00218731
12.8945	12.6173	0.00075799	0.00280647
12.895	12.6169	4.3432e-05	0.00378511
12.8955	12.6164	-0.00109606	0.00411732
12.8959	12.6159	-0.000363633	0.00330714
12.8964	12.6154	-0.00032115	0.00218157
12.8969	12.615	0.000829544	0.00293118
12.8974	12.6145	-5.55342e-05	0.00376503
12.8978	12.614	-0.00104851	0.0040071
12.8983	12.6135	-0.000371302	0.00337441
12.8988	12.6131	-0.000313481	0.00225286
