# 1304     AichiSR QXAFS
# Start     : 8.9544
# End       : 9.0544
# Dir       : Forward
# Points    : 300
# ScanTime  : 1.01549
# Date      : 13.04.24 00:33
# Ring Cur. : 0.9[mA]
12.7557	12.7562	-0.000336756	0.00273485
12.7562	12.7558	0.000452227	0.00233898
12.7566	12.7553	0.000122655	0.00309557
12.7571	12.7548	-2.58568e-05	0.00426833
12.7576	12.7543	-0.00130853	0.00356231
12.7581	12.7539	-0.000379435	0.00261792
12.7585	12.7534	0.000539387	0.00231202
12.759	12.7529	2.88252e-05	0.00305106
12.7595	12.7525	3.95619e-05	0.00429513
12.7599	12.752	-0.00141616	0.00359501
12.7604	12.7516	-0.000425449	0.00252499
12.7609	12.7511	0.000615542	0.00237774
12.7614	12.7506	-4.01961e-05	0.00314899
12.7618	12.7501	4.28431e-06	0.00417041
12.7623	12.7497	-0.00120623	0.00350315
12.7628	12.7492	-0.000448991	0.00246739
12.7632	12.7487	0.000649821	0.00231514
12.7637	12.7483	-0.000101013	0.00322962
12.7642	12.7478	-0.000220454	0.00421105
12.7647	12.7473	-0.00112981	0.00370694
12.7651	12.7469	-0.000501872	0.0025658
12.7656	12.7464	0.000714776	0.00246492
12.7661	12.7459	7.53745e-05	0.00325265
12.7666	12.7454	-0.000221185	0.00423424
12.767	12.745	-0.00110753	0.00347668
12.7675	12.7445	-0.000487069	0.00248124
12.768	12.744	0.000764125	0.00252049
12.7684	12.7435	-8.62104e-05	0.00327166
12.7689	12.7431	-0.000196645	0.0041192
12.7694	12.7426	-0.00103064	0.00349832
12.7699	12.7421	-0.000552559	0.00249074
12.7703	12.7417	0.000840548	0.00250991
12.7708	12.7412	-9.66795e-05	0.00330075
12.7713	12.7407	-0.000389904	0.00415157
12.7717	12.7402	-0.0010091	0.00349569
12.7722	12.7398	-0.000523346	0.00240356
12.7727	12.7393	0.00078353	0.00238971
12.7732	12.7388	-0.000242195	0.00330468
12.7736	12.7384	-0.00043492	0.00412714
12.7741	12.7379	-0.0010191	0.00335262
12.7746	12.7374	-0.000530818	0.00231637
12.7751	12.737	0.000830347	0.00262275
12.7755	12.7365	-0.000141962	0.00334344
12.776	12.736	-0.000430318	0.00409863
12.7765	12.7355	-0.000855522	0.00352216
12.7769	12.735	-0.000526484	0.00233833
12.7774	12.7345	0.00092464	0.00254351
12.7779	12.7341	-9.72145e-05	0.00331976
12.7784	12.7336	-0.000472534	0.00419269
12.7788	12.7331	-0.00087926	0.00340039
12.7793	12.7327	-0.000562761	0.00224024
12.7798	12.7322	0.0010182	0.00257637
12.7802	12.7317	-0.000158299	0.00338719
12.7807	12.7312	-0.000499072	0.00408167
12.7812	12.7308	-0.00083091	0.00346562
12.7817	12.7303	-0.000539219	0.0022432
12.7821	12.7298	0.000952516	0.00261095
12.7826	12.7293	-0.000116352	0.00343653
12.7831	12.7289	-0.000645586	0.00410937
12.7836	12.7284	-0.000794901	0.0035061
12.784	12.728	-0.000664723	0.00222656
12.7845	12.7275	0.00096632	0.00266995
12.785	12.727	-0.000186443	0.0034049
12.7854	12.7265	-0.000699002	0.00410051
12.7859	12.7261	-0.00083371	0.00330263
12.7864	12.7256	-0.000624844	0.00221099
12.7869	12.7251	0.000905236	0.00256327
12.7873	12.7246	-0.000140161	0.00356338
12.7878	12.7241	-0.000701338	0.00407855
12.7883	12.7237	-0.000685465	0.00338499
12.7887	12.7232	-0.000653255	0.00221598
12.7892	12.7227	0.000989328	0.00263693
12.7897	12.7223	-0.000200247	0.00353101
12.7902	12.7218	-0.000808972	0.0041841
12.7906	12.7214	-0.000661459	0.00334934
12.7911	12.7209	-0.000765491	0.00215354
12.7916	12.7204	0.00103154	0.00274296
12.7921	12.7199	-0.000115085	0.00358288
12.7925	12.7195	-0.000817908	0.00409257
12.793	12.719	-0.00061104	0.0033509
12.7935	12.7186	-0.00070207	0.00210979
12.7939	12.7181	0.000829277	0.00268986
12.7944	12.7176	-0.000120222	0.0036663
12.7949	12.7171	-0.000922207	0.0040879
12.7954	12.7167	-0.000578634	0.00330108
12.7958	12.7162	-0.000656591	0.00217035
12.7963	12.7157	0.000947915	0.00268659
12.7968	12.7152	-0.000106417	0.0036481
12.7972	12.7147	-0.000931677	0.00411936
12.7977	12.7143	-0.000600375	0.00332287
12.7982	12.7138	-0.000510344	0.00214839
12.7987	12.7133	0.00084128	0.0026198
12.7991	12.7129	-0.000104884	0.00364155
12.7996	12.7124	-0.00105231	0.00409101
12.8001	12.7119	-0.000517014	0.00326961
12.8006	12.7115	-0.000513679	0.00216412
12.801	12.711	0.000860952	0.00287964
12.8015	12.7105	-0.00010335	0.00378183
12.802	12.71	-0.00099863	0.00397145
12.8024	12.7096	-0.000535884	0.00320487
12.8029	12.7091	-0.000471267	0.00217051
12.8034	12.7086	0.000743116	0.00281334
12.8039	12.7082	2.24225e-05	0.00371644
12.8043	12.7077	-0.00105205	0.00390123
12.8048	12.7072	-0.000518013	0.00323773
12.8053	12.7067	-0.000320152	0.0020321
12.8057	12.7062	0.000739049	0.00268707
12.8062	12.7058	-6.32032e-05	0.00371456
12.8067	12.7053	-0.00123744	0.00393237
12.8072	12.7048	-0.00041885	0.00306115
12.8076	12.7043	-0.000395308	0.00208783
12.8081	12.7038	0.000665694	0.00267848
12.8086	12.7034	4.69634e-05	0.00382961
12.8091	12.7029	-0.00124664	0.00377716
12.8095	12.7024	-0.000344158	0.00315677
12.81	12.702	-0.000329087	0.00209545
12.8105	12.7015	0.000587737	0.00281286
12.8109	12.701	8.89112e-05	0.00395605
12.8114	12.7005	-0.00121903	0.00394933
12.8119	12.7001	-0.000378436	0.00309836
12.8124	12.6996	-0.00018004	0.00207726
12.8128	12.6992	0.000490038	0.00283187
12.8133	12.6987	5.46325e-05	0.00393564
12.8138	12.6982	-0.00130673	0.0037879
12.8142	12.6978	-0.000427251	0.00305385
12.8147	12.6973	-0.000242391	0.00216551
12.8152	12.6968	0.000494639	0.00288324
12.8157	12.6963	0.000117055	0.00396227
12.8161	12.6959	-0.00133507	0.00380658
12.8166	12.6954	-0.000284607	0.00307082
12.8171	12.6949	-8.59429e-05	0.00224615
12.8176	12.6944	0.00044809	0.00281065
12.818	12.694	0.000106318	0.00407388
12.8185	12.6935	-0.00132947	0.00380191
12.819	12.693	-0.000369233	0.00303796
12.8194	12.6926	-8.46765e-05	0.00215666
12.8199	12.6921	0.000475234	0.00301026
12.8204	12.6916	0.000124189	0.0041083
12.8209	12.6912	-0.00125404	0.00377061
12.8213	12.6907	-0.00033162	0.00304451
12.8218	12.6902	5.77001e-05	0.00215445
12.8223	12.6897	0.000405946	0.002903
12.8227	12.6893	0.000191676	0.00409912
12.8232	12.6888	-0.0014353	0.00378258
12.8237	12.6884	-0.000295611	0.00295314
12.8242	12.6879	0.00012212	0.00222967
12.8246	12.6874	0.000322318	0.00278623
12.8251	12.6869	0.000196278	0.00415173
12.8256	12.6865	-0.00155394	0.00381249
12.8261	12.686	-0.000356696	0.00284851
12.8265	12.6855	0.000181939	0.0022527
12.827	12.685	0.000252297	0.00294331
12.8275	12.6845	0.000279906	0.0042372
12.8279	12.6841	-0.00150152	0.00372562
12.8284	12.6836	-0.000414445	0.00286252
12.8289	12.6831	0.000212151	0.00210807
12.8294	12.6826	0.000251031	0.00293413
12.8298	12.6822	0.000141061	0.00410535
12.8303	12.6817	-0.00151633	0.00366958
12.8308	12.6812	-0.000458462	0.00281597
12.8312	12.6808	0.000385471	0.0023285
12.8317	12.6803	0.000128255	0.00292512
12.8322	12.6798	9.81141e-05	0.00414271
12.8327	12.6793	-0.0014243	0.00356543
12.8331	12.6789	-0.000358229	0.00271805
12.8336	12.6784	0.000214951	0.00223885
12.8341	12.6779	3.34267e-05	0.00285973
12.8346	12.6775	0.000147463	0.00415968
12.835	12.677	-0.00144964	0.0036772
12.8355	12.6765	-0.00040271	0.00280786
12.836	12.676	0.000382404	0.00228121
12.8364	12.6755	0.000201147	0.0030618
12.8369	12.6751	2.39563e-05	0.00431923
12.8374	12.6746	-0.00130826	0.00360902
12.8379	12.6741	-0.000492473	0.00262152
12.8383	12.6736	0.00031645	0.00229989
12.8388	12.6732	0.000122388	0.00305525
12.8393	12.6727	6.28365e-05	0.00416714
12.8397	12.6722	-0.00139669	0.00364467
12.8402	12.6718	-0.000364632	0.0026897
12.8407	12.6713	0.000340723	0.00228727
12.8412	12.6708	2.42238e-05	0.00318587
12.8416	12.6704	7.20393e-05	0.00422678
12.8421	12.6699	-0.00138622	0.00376922
12.8426	12.6694	-0.000261332	0.00257621
12.8431	12.669	0.000559059	0.00241789
12.8435	12.6685	4.92997e-05	0.00311318
12.844	12.668	-4.18723e-06	0.00425851
12.8445	12.6676	-0.00117889	0.00365401
12.8449	12.6671	-0.000479668	0.00254335
12.8454	12.6666	0.000502576	0.00227219
12.8459	12.6661	8.30435e-05	0.00308918
12.8464	12.6657	-0.000134561	0.0041455
12.8468	12.6652	-0.00109633	0.00358395
12.8473	12.6647	-0.000461797	0.0024646
12.8478	12.6642	0.000648287	0.00235873
12.8482	12.6637	-1.07863e-05	0.0031426
12.8487	12.6633	-0.000151433	0.00428439
12.8492	12.6628	-0.00132433	0.00360435
12.8497	12.6624	-0.000435187	0.00252516
12.8501	12.6619	0.000676431	0.00228727
12.8506	12.6614	-1.05188e-05	0.00330435
12.8511	12.661	-0.000108219	0.00424482
12.8516	12.6605	-0.00121777	0.00354191
12.852	12.66	-0.0005855	0.00253761
12.8525	12.6595	0.000704574	0.00235562
12.853	12.6591	-9.26131e-05	0.00323912
12.8534	12.6586	-0.000264667	0.00413648
12.8539	12.6581	-0.00103084	0.00356092
12.8544	12.6577	-0.000611843	0.00246599
12.8549	12.6572	0.000807536	0.00250008
12.8553	12.6567	-0.000101013	0.00312998
12.8558	12.6562	-0.000240857	0.00422351
12.8563	12.6558	-0.00106078	0.00347389
12.8567	12.6553	-0.000645586	0.0023452
12.8572	12.6548	0.000800134	0.00250664
12.8577	12.6543	-7.14073e-05	0.00309589
12.8582	12.6538	-0.000374834	0.00411453
12.8586	12.6534	-0.000902267	0.00355936
12.8591	12.6529	-0.000641984	0.00218763
12.8596	12.6524	0.000824408	0.00248017
12.8601	12.652	-6.04031e-05	0.00341908
12.8605	12.6515	-0.000375904	0.00415796
12.861	12.651	-0.00086419	0.00334123
12.8615	12.6505	-0.000578366	0.00227917
12.8619	12.6501	0.000991129	0.00261792
12.8624	12.6496	-5.86018e-05	0.00326699
12.8629	12.6491	-0.000516212	0.00411887
12.8634	12.6487	-0.00098816	0.00347808
12.8638	12.6482	-0.000608775	0.0023058
12.8643	12.6477	0.000932577	0.00262185
12.8648	12.6472	-0.000136826	0.00340367
12.8652	12.6468	-0.000456393	0.00414287
12.8657	12.6463	-0.000874659	0.00341006
12.8662	12.6458	-0.00062158	0.00227793
12.8667	12.6453	0.000954317	0.00252655
12.8671	12.6448	-8.4944e-05	0.00338687
12.8676	12.6444	-0.000610041	0.00407265
12.8681	12.6439	-0.000818907	0.00341145
12.8686	12.6434	-0.000651989	0.00209889
12.869	12.643	0.00107062	0.0027028
12.8695	12.6425	-4.01961e-05	0.00342858
12.87	12.642	-0.000702605	0.00411624
12.8704	12.6416	-0.000847781	0.00345489
12.8709	12.6411	-0.000758357	0.00222656
12.8714	12.6406	0.000959918	0.0026321
12.8719	12.6401	-0.000257266	0.00361836
12.8723	12.6397	-0.000762691	0.00405364
12.8728	12.6392	-0.000692403	0.00343841
12.8733	12.6388	-0.000615909	0.00224196
12.8737	12.6383	0.000927244	0.0026897
12.8742	12.6378	-0.000183108	0.0035651
12.8747	12.6374	-0.000684199	0.00410363
12.8752	12.6369	-0.000609042	0.00337753
12.8756	12.6364	-0.000689335	0.00215601
12.8761	12.6359	0.000960988	0.00272256
12.8766	12.6354	-7.64725e-05	0.00364155
12.8771	12.635	-0.000761424	0.00411732
12.8775	12.6345	-0.000657322	0.00340523
12.878	12.634	-0.000744553	0.00219853
12.8785	12.6336	0.000865892	0.0027392
12.8789	12.6331	-4.29962e-05	0.00366523
12.8794	12.6326	-0.000854184	0.00410068
12.8799	12.6322	-0.000547886	0.0032461
12.8804	12.6317	-0.000593972	0.0020961
12.8808	12.6312	0.00105095	0.00277893
12.8813	12.6307	-0.000138895	0.00366351
12.8818	12.6303	-0.000986627	0.00408355
12.8822	12.6298	-0.000540021	0.00331944
12.8827	12.6293	-0.000525949	0.00206759
12.8832	12.6289	0.000800669	0.00264627
12.8837	12.6284	-5.91368e-05	0.00380937
12.8841	12.6279	-0.000980491	0.00397891
12.8846	12.6274	-0.00053822	0.00323864
12.8851	12.627	-0.000535955	0.00216567
12.8856	12.6265	0.000858686	0.00280164
12.886	12.626	-4.75977e-05	0.00367548
12.8865	12.6255	-0.000994563	0.00398358
12.887	12.625	-0.000535884	0.00322586
12.8874	12.6246	-0.000502675	0.00210061
12.8879	12.6241	0.000765659	0.00283138
12.8884	12.6236	-8.13414e-05	0.00381576
12.8889	12.6231	-0.0011152	0.0039445
12.8893	12.6227	-0.000368698	0.00315129
12.8898	12.6222	-0.000356428	0.00221271
12.8903	12.6218	0.000702238	0.00281114
12.8907	12.6213	4.08282e-05	0.00385173
12.8912	12.6208	-0.00113901	0.00395695
12.8917	12.6203	-0.000471464	0.00310539
12.8922	12.6198	-0.000353895	0.00211323
12.8926	12.6194	0.000620679	0.0028113
12.8931	12.6189	-8.25365e-06	0.00400259
12.8936	12.6184	-0.00122264	0.00380003
12.8941	12.618	-0.000489138	0.003158
12.8945	12.6175	-0.000150898	0.00202276
12.895	12.617	0.000504644	0.0028703
12.8955	12.6165	8.12422e-05	0.00405504
12.8959	12.6161	-0.00119629	0.00388303
12.8964	12.6156	-0.000413446	0.00295609
12.8969	12.6151	-0.000160832	0.0021923
12.8974	12.6146	0.000530648	0.00283916
12.8978	12.6142	5.74326e-05	0.0039336
12.8983	12.6137	-0.00126252	0.00377995
12.8988	12.6132	-0.000395308	0.00306615
