# 1304     AichiSR QXAFS
# Start     : 8.9544
# End       : 9.0544
# Dir       : Forward
# Points    : 300
# ScanTime  : 1.01549
# Date      : 13.04.23 23:41
# Ring Cur. : 1[mA]
12.7557	12.7562	-0.000729946	0.00421261
12.7562	12.7558	-0.000846783	0.003458
12.7566	12.7553	-0.000618245	0.00206652
12.7571	12.7548	0.000981926	0.00272879
12.7576	12.7543	-0.000119954	0.00366679
12.7581	12.7539	-0.000804835	0.00424761
12.7585	12.7534	-0.000645586	0.00333361
12.759	12.7529	-0.000714608	0.00212192
12.7595	12.7525	0.00108162	0.00266044
12.7599	12.752	-7.18711e-05	0.00359329
12.7604	12.7516	-0.000748351	0.00427907
12.7609	12.7511	-0.000642519	0.00337458
12.7614	12.7506	-0.00067093	0.00214715
12.7618	12.7501	0.00101287	0.00270232
12.7623	12.7497	-8.03426e-05	0.00364762
12.7628	12.7492	-0.000749885	0.00425636
12.7632	12.7487	-0.00058937	0.00341441
12.7637	12.7483	-0.000613109	0.00222172
12.7642	12.7478	0.000920574	0.00279901
12.7647	12.7473	-6.24007e-05	0.00363082
12.7651	12.7469	-0.000889997	0.00421868
12.7656	12.7464	-0.000548956	0.00341801
12.7661	12.7459	-0.000608775	0.00229597
12.7666	12.7454	0.000894963	0.00275992
12.767	12.7449	-6.32032e-05	0.00365385
12.7675	12.7445	-0.000959821	0.00396088
12.768	12.744	-0.000607509	0.00340695
12.7684	12.7435	-0.000583235	0.00225786
12.7689	12.7431	0.000975256	0.00273329
12.7694	12.7426	-7.75425e-05	0.00363393
12.7699	12.7421	-0.000896132	0.00410846
12.7703	12.7417	-0.000584965	0.00329608
12.7708	12.7412	-0.000531282	0.00221893
12.7713	12.7407	0.000822874	0.00284088
12.7717	12.7402	-0.000165433	0.003718
12.7722	12.7398	-0.00105565	0.004136
12.7727	12.7393	-0.00058657	0.00328846
12.7732	12.7388	-0.000482468	0.00212847
12.7736	12.7384	0.000848217	0.00281565
12.7741	12.7379	2.3225e-05	0.00375864
12.7746	12.7374	-0.00105592	0.00410175
12.7751	12.7369	-0.000352629	0.00331009
12.7755	12.7365	-0.000517014	0.00205594
12.776	12.736	0.00075132	0.00295077
12.7765	12.7355	-6.78047e-05	0.00387009
12.7769	12.735	-0.00112647	0.0040407
12.7774	12.7345	-0.00043772	0.00325544
12.7779	12.7341	-0.000370767	0.00206759
12.7784	12.7336	0.000751784	0.00294208
12.7788	12.7331	5.36337e-05	0.00384083
12.7793	12.7326	-0.00116075	0.00405831
12.7798	12.7322	-0.000471196	0.003198
12.7802	12.7317	-0.000404244	0.00225286
12.7807	12.7312	0.000643418	0.00294675
12.7812	12.7308	6.13027e-05	0.00375209
12.7817	12.7303	-0.00118529	0.00394826
12.7821	12.7298	-0.000473532	0.0031893
12.7826	12.7293	-0.000425449	0.00211585
12.7831	12.7289	0.000641885	0.00281425
12.7836	12.7284	7.05055e-05	0.00379429
12.784	12.7279	-0.00120596	0.00403013
12.7845	12.7275	-0.000479668	0.00328363
12.785	12.727	-0.000250595	0.00219886
12.7854	12.7265	0.000569796	0.00280336
12.7859	12.7261	2.34925e-05	0.0038301
12.7864	12.7256	-0.00135635	0.00390451
12.7869	12.7251	-0.000373032	0.00318447
12.7873	12.7246	-0.000324486	0.0022468
12.7878	12.7241	0.000556526	0.00294503
12.7883	12.7237	2.93602e-05	0.00400071
12.7887	12.7232	-0.00135988	0.00394606
12.7892	12.7227	-0.000330353	0.00308172
12.7897	12.7223	-0.00017057	0.0022323
12.7902	12.7218	0.000629882	0.0028608
12.7906	12.7214	-4.91854e-06	0.00404167
12.7911	12.7209	-0.00129906	0.00391852
12.7916	12.7204	-0.000366166	0.0031703
12.7921	12.7199	-0.000191312	0.00212708
12.7925	12.7195	0.000441955	0.00293585
12.793	12.719	0.000106051	0.00395621
12.7935	12.7185	-0.00133714	0.00385001
12.7939	12.7181	-0.000484269	0.00296372
12.7944	12.7176	-0.000149096	0.00212536
12.7949	12.7171	0.000556259	0.00287964
12.7954	12.7167	7.20393e-05	0.00406905
12.7958	12.7162	-0.00143917	0.00390762
12.7963	12.7157	-0.000257266	0.00310851
12.7968	12.7152	-0.000110484	0.00215199
12.7972	12.7147	0.000450159	0.00293864
12.7977	12.7143	0.000215486	0.00403561
12.7982	12.7138	-0.00135861	0.00389189
12.7987	12.7133	-0.000342089	0.00294315
12.7991	12.7128	2.29575e-05	0.00229474
12.7996	12.7124	0.000371934	0.00299469
12.8001	12.7119	0.000101182	0.004096
12.8006	12.7115	-0.00149819	0.00367457
12.801	12.711	-0.000444925	0.00289849
12.8015	12.7105	-7.98616e-06	0.00229694
12.802	12.71	0.000327989	0.00297757
12.8024	12.7096	0.000159199	0.00420294
12.8029	12.7091	-0.00139976	0.00373185
12.8034	12.7086	-0.000373567	0.00289349
12.8039	12.7082	9.91129e-05	0.00221459
12.8043	12.7077	0.000337923	0.00294643
12.8048	12.7072	0.000149532	0.00424858
12.8053	12.7067	-0.00137288	0.00374586
12.8057	12.7062	-0.000345959	0.00291266
12.8062	12.7058	0.000197277	0.00233956
12.8067	12.7053	0.000276571	0.00300248
12.8072	12.7048	0.000219017	0.00423113
12.8076	12.7043	-0.00139876	0.00393237
12.8081	12.7038	-0.000269536	0.0028004
12.8086	12.7034	0.000100647	0.00225893
12.8091	12.7029	0.000256899	0.00293209
12.8095	12.7024	0.000159003	0.0042453
12.81	12.702	-0.00158642	0.00370243
12.8105	12.7015	-0.000361029	0.00286891
12.8109	12.701	0.000219552	0.00222983
12.8114	12.7005	0.000311581	0.00290128
12.8119	12.7001	8.86437e-05	0.00430881
12.8124	12.6996	-0.00154854	0.00365417
12.8128	12.6991	-0.000261599	0.00287948
12.8133	12.6987	0.000170471	0.00221271
12.8138	12.6982	0.000181207	0.00294299
12.8142	12.6978	0.000118589	0.0041659
12.8147	12.6973	-0.00144937	0.00360591
12.8152	12.6968	-0.000454859	0.00278435
12.8157	12.6963	0.000207282	0.00242584
12.8161	12.6959	0.000212151	0.00304607
12.8166	12.6954	0.000295975	0.00426506
12.8171	12.6949	-0.00147932	0.00383412
12.8176	12.6944	-0.000327821	0.00285785
12.818	12.6939	0.000225955	0.00232931
12.8185	12.6935	6.15702e-05	0.00298068
12.819	12.693	0.000166137	0.00429808
12.8194	12.6926	-0.0014389	0.00374603
12.8199	12.6921	-0.000316014	0.00279278
12.8204	12.6916	0.000316985	0.00229055
12.8209	12.6912	0.000104784	0.00301976
12.8213	12.6907	0.000122655	0.00429636
12.8218	12.6902	-0.00143683	0.00361541
12.8223	12.6897	-0.000461726	0.00268364
12.8227	12.6893	0.000371934	0.0023103
12.8232	12.6888	0.00011092	0.00299502
12.8237	12.6883	0.000100914	0.00427456
12.8242	12.6879	-0.00142203	0.0036132
12.8246	12.6874	-0.000387907	0.00268659
12.8251	12.6869	0.000446288	0.00223541
12.8256	12.6864	4.55181e-06	0.00316235
12.8261	12.686	8.53086e-05	0.00427038
12.8265	12.6855	-0.00138749	0.00355904
12.827	12.685	-0.00041885	0.00265159
12.8275	12.6845	0.000514043	0.00228088
12.8279	12.684	1.42185e-05	0.00315612
12.8284	12.6836	-2.45905e-05	0.00423736
12.8289	12.6831	-0.00115201	0.00355625
12.8294	12.6826	-0.00037997	0.00258866
12.8298	12.6822	0.000539922	0.00233194
12.8303	12.6817	7.35732e-05	0.00318447
12.8308	12.6812	7.12368e-05	0.00412494
12.8312	12.6807	-0.00132713	0.00360698
12.8317	12.6803	-0.000404511	0.00253015
12.8322	12.6798	0.000409013	0.00242847
12.8327	12.6793	7.88692e-06	0.00310024
12.8331	12.6789	-9.61445e-05	0.00422367
12.8336	12.6784	-0.0012249	0.00358378
12.8341	12.6779	-0.000530016	0.00259677
12.8346	12.6775	0.000625548	0.00239626
12.835	12.677	-0.000121488	0.00312547
12.8355	12.6765	-0.000172371	0.00418303
12.836	12.676	-0.00113694	0.00371194
12.8364	12.6755	-0.000545354	0.00249418
12.8369	12.675	0.000664428	0.00238053
12.8374	12.6746	4.95672e-05	0.00321282
12.8379	12.6741	-0.000183108	0.00422662
12.8383	12.6736	-0.00110427	0.00363672
12.8388	12.6731	-0.000401443	0.00239781
12.8393	12.6727	0.000674362	0.00247722
12.8397	12.6722	-0.000100015	0.00335434
12.8402	12.6718	-0.000166236	0.00424686
12.8407	12.6713	-0.00111807	0.00353847
12.8412	12.6708	-0.000381504	0.00245182
12.8416	12.6703	0.000699438	0.00239749
12.8421	12.6699	-9.44144e-05	0.00331525
12.8426	12.6694	-0.000276403	0.00422147
12.8431	12.669	-0.00104925	0.00371473
12.8435	12.6685	-0.000453325	0.00243207
12.844	12.668	0.000808802	0.00254556
12.8445	12.6675	1.21669e-06	0.00319242
12.8449	12.6671	-0.000388174	0.00423515
12.8454	12.6666	-0.000993832	0.00345365
12.8459	12.6661	-0.000521348	0.00246599
12.8464	12.6656	0.000824943	0.00256547
12.8468	12.6652	-5.14678e-05	0.00336459
12.8473	12.6647	-0.000401711	0.0042526
12.8478	12.6642	-0.000893599	0.00340678
12.8482	12.6637	-0.000448456	0.00243019
12.8487	12.6633	0.000851552	0.00253434
12.8492	12.6628	-5.91735e-06	0.00334795
12.8497	12.6623	-0.00050601	0.00432562
12.8501	12.6619	-0.000987162	0.00342407
12.8506	12.6614	-0.000590369	0.002284
12.8511	12.6609	0.000829009	0.00261841
12.8516	12.6605	-6.70022e-05	0.00333689
12.852	12.66	-0.000580168	0.00410207
12.8525	12.6595	-0.000853453	0.0035424
12.853	12.6591	-0.000544088	0.00230284
12.8534	12.6586	0.000980392	0.00266028
12.8539	12.6581	-0.000128158	0.00338311
12.8544	12.6577	-0.000477599	0.00408994
12.8549	12.6572	-0.000933478	0.00343653
12.8553	12.6567	-0.000489138	0.00236619
12.8558	12.6562	0.00100566	0.00253294
12.8563	12.6557	-0.000138627	0.00345628
12.8567	12.6553	-0.000579098	0.00418287
12.8572	12.6548	-0.000906334	0.00346144
12.8577	12.6543	-0.00043772	0.00221426
12.8582	12.6538	0.00105275	0.00258211
12.8586	12.6534	-0.000156034	0.00337876
12.8591	12.6529	-0.000598038	0.00413509
12.8596	12.6524	-0.000760889	0.00341285
12.8601	12.652	-0.000635652	0.00224229
12.8605	12.6515	0.00106088	0.00262947
12.861	12.651	-0.000101548	0.00348742
12.8615	12.6505	-0.00053542	0.00427022
12.8619	12.6501	-0.000847318	0.00349848
12.8624	12.6496	-0.000518013	0.00220443
12.8629	12.6491	0.000878091	0.00257809
12.8634	12.6487	-0.000137361	0.00356076
12.8638	12.6482	-0.000756288	0.00419049
12.8643	12.6477	-0.000791833	0.00350036
12.8648	12.6472	-0.000488335	0.00227015
12.8652	12.6467	0.000950447	0.0026802
12.8657	12.6463	3.06265e-05	0.00350905
12.8662	12.6458	-0.000671126	0.0041877
12.8667	12.6453	-0.000771359	0.00352962
12.8671	12.6448	-0.000750153	0.00221877
12.8676	12.6444	0.00108803	0.00259784
12.8681	12.6439	-0.000101281	0.00357321
12.8686	12.6434	-0.000731747	0.0041782
12.869	12.6429	-0.000654789	0.00337081
12.8695	12.6425	-0.000616712	0.0021769
12.87	12.642	0.000995463	0.00261685
12.8704	12.6416	-7.80063e-05	0.00352618
12.8709	12.6411	-0.000790834	0.00411764
12.8714	12.6406	-0.000579633	0.00337999
12.8719	12.6401	-0.00064712	0.00224851
12.8723	12.6397	0.000933647	0.00271805
12.8728	12.6392	-0.000176973	0.00369637
12.8733	12.6387	-0.000817373	0.00406315
12.8737	12.6383	-0.000566827	0.00353708
12.8742	12.6378	-0.00052108	0.00231825
12.8747	12.6373	0.000908036	0.00273378
12.8752	12.6369	-0.000129424	0.00369432
12.8756	12.6364	-0.000939614	0.00425711
12.8761	12.6359	-0.000652257	0.00343121
12.8766	12.6354	-0.000494203	0.00222795
12.8771	12.635	0.000874292	0.00275182
12.8775	12.6345	-0.000140429	0.00367564
12.878	12.634	-0.00100196	0.00416214
12.8785	12.6335	-0.000517745	0.00334918
12.8789	12.6331	-0.000623846	0.00231481
12.8794	12.6326	0.000734448	0.00272116
12.8799	12.6321	-6.26682e-05	0.0037303
12.8804	12.6317	-0.00100043	0.00407265
12.8808	12.6312	-0.00059984	0.00345038
12.8813	12.6307	-0.000518013	0.00213019
12.8818	12.6302	0.000897299	0.00278033
12.8822	12.6298	-0.000228854	0.00377856
12.8827	12.6293	-0.00106745	0.00403512
12.8832	12.6288	-0.000433386	0.0032905
12.8837	12.6284	-0.000483003	0.00204317
12.8841	12.6279	0.000855886	0.00277082
12.8846	12.6274	7.88692e-06	0.0037857
12.8851	12.627	-0.0010127	0.00396662
12.8856	12.6265	-0.000498608	0.00321561
12.886	12.626	-0.000483003	0.00218296
12.8865	12.6255	0.000762592	0.00284195
12.887	12.625	-3.30621e-05	0.00386575
12.8874	12.6245	-0.00116148	0.00407077
12.8879	12.6241	-0.000401711	0.00328116
12.8884	12.6236	-0.000527216	0.00213921
12.8889	12.6231	0.000761789	0.00281581
12.8893	12.6227	-4.47975e-05	0.00381995
12.8898	12.6222	-0.0012009	0.00397875
12.8903	12.6217	-0.000501141	0.00319038
12.8907	12.6213	-0.000358497	0.00214543
12.8912	12.6208	0.000683832	0.00280368
12.8917	12.6203	2.44913e-05	0.00383552
12.8922	12.6198	-0.00115561	0.00405708
12.8926	12.6194	-0.000442589	0.00325453
12.8931	12.6189	-0.000227856	0.00223541
12.8936	12.6184	0.000637551	0.00290267
12.8941	12.618	1.90874e-05	0.00395261
12.8945	12.6175	-0.0012231	0.00404758
12.895	12.617	-0.000394506	0.0032388
12.8955	12.6165	-0.000249329	0.00219558
12.8959	12.6161	0.00055526	0.00278902
12.8964	12.6156	3.70293e-05	0.00389221
12.8969	12.6151	-0.00117429	0.00393876
12.8974	12.6146	-0.000473265	0.00309073
12.8978	12.6141	-0.00027107	0.00217797
12.8983	12.6137	0.000632682	0.00294471
12.8988	12.6132	-3.38473e-06	0.00407233
