# 1304     AichiSR QXAFS
# Start     : 8.9544
# End       : 9.0544
# Dir       : Forward
# Points    : 300
# ScanTime  : 1.01549
# Date      : 13.04.23 23:13
# Ring Cur. : 0.9[mA]
12.7557	12.7562	-0.000786697	0.00428342
12.7562	12.7557	-0.000656056	0.00338671
12.7566	12.7552	-0.000597503	0.00229087
12.7571	12.7547	0.000914902	0.00285489
12.7576	12.7542	-0.000167502	0.00381453
12.7581	12.7538	-0.000978958	0.00414566
12.7585	12.7533	-0.000582165	0.00341145
12.759	12.7528	-0.000578099	0.0022046
12.7595	12.7524	0.000769458	0.00282483
12.7599	12.7519	-8.25365e-06	0.0039467
12.7604	12.7515	-0.000970754	0.00424826
12.7609	12.751	-0.000520813	0.00336163
12.7614	12.7505	-0.000550758	0.00229474
12.7618	12.75	0.000895765	0.00285645
12.7623	12.7496	-3.86623e-05	0.00381625
12.7628	12.7491	-0.00106638	0.00411592
12.7632	12.7487	-0.000580899	0.00336893
12.7637	12.7482	-0.000470465	0.00216739
12.7642	12.7477	0.000726244	0.00288571
12.7647	12.7472	-2.81932e-05	0.00397113
12.7651	12.7468	-0.00103678	0.00410223
12.7656	12.7463	-0.000571964	0.00343293
12.7661	12.7458	-0.000468663	0.00222221
12.7666	12.7453	0.000686632	0.00294208
12.767	12.7449	-6.70022e-05	0.00381453
12.7675	12.7444	-0.0011096	0.00411281
12.768	12.7439	-0.000446655	0.00331525
12.7684	12.7434	-0.00050041	0.00213126
12.7689	12.743	0.000740316	0.00294766
12.7694	12.7425	-4.32637e-05	0.00385313
12.7699	12.742	-0.00116942	0.00409273
12.7703	12.7416	-0.000470197	0.00332845
12.7708	12.7411	-0.000361832	0.00229146
12.7713	12.7406	0.000704307	0.00286751
12.7717	12.7401	0.000106514	0.00389951
12.7722	12.7397	-0.00119269	0.00408913
12.7727	12.7392	-0.000445924	0.00330682
12.7732	12.7387	-0.000303012	0.00215805
12.7736	12.7383	0.000653887	0.00284818
12.7741	12.7378	2.93602e-05	0.00390869
12.7746	12.7373	-0.00128139	0.00403717
12.7751	12.7369	-0.000464062	0.00312203
12.7755	12.7364	-0.00034496	0.00220492
12.776	12.7359	0.000498509	0.00292619
12.7765	12.7354	4.72309e-05	0.00395056
12.7769	12.7349	-0.00126965	0.00413444
12.7774	12.7344	-0.000346226	0.00318603
12.7779	12.734	-0.000294808	0.0022046
12.7784	12.7335	0.000393943	0.00283433
12.7788	12.733	-6.45235e-06	0.00390467
12.7793	12.7326	-0.00130593	0.00396866
12.7798	12.7321	-0.000471999	0.0032016
12.7802	12.7316	-0.000265202	0.00218468
12.7807	12.7312	0.000431485	0.00298256
12.7812	12.7307	4.9496e-05	0.00400415
12.7817	12.7302	-0.00123077	0.00389345
12.7821	12.7297	-0.000509541	0.00319709
12.7826	12.7293	-0.000186443	0.00223278
12.7831	12.7288	0.00056646	0.00286236
12.7836	12.7283	-8.98496e-06	0.00395261
12.784	12.7279	-0.00136294	0.00391745
12.7845	12.7274	-0.000386373	0.00304591
12.785	12.7269	-0.00014783	0.00218124
12.7854	12.7264	0.000403342	0.00296994
12.7859	12.726	-1.17851e-05	0.00409396
12.7864	12.7255	-0.00132513	0.00389205
12.7869	12.725	-0.00040271	0.0032002
12.7873	12.7245	-0.000104616	0.00225007
12.7878	12.7241	0.000444291	0.00285817
12.7883	12.7236	0.000150531	0.00411109
12.7887	12.7231	-0.00143477	0.00384083
12.7892	12.7227	-0.000396842	0.00304188
12.7897	12.7222	5.44362e-05	0.0022236
12.7902	12.7217	0.000343256	0.00289709
12.7906	12.7213	0.000136727	0.00419393
12.7911	12.7208	-0.00148925	0.00383428
12.7916	12.7203	-0.000334955	0.00297757
12.7921	12.7198	9.81141e-05	0.0023058
12.7925	12.7194	0.000394941	0.0029547
12.793	12.7189	0.000134925	0.00417648
12.7935	12.7185	-0.00138775	0.00382789
12.7939	12.718	-0.000385107	0.00299034
12.7944	12.7175	-3.78598e-05	0.0022236
12.7949	12.717	0.000251762	0.00303968
12.7954	12.7166	0.000123654	0.00437093
12.7958	12.7161	-0.00142203	0.00381576
12.7963	12.7156	-0.000407579	0.00297585
12.7968	12.7151	0.000138261	0.00229383
12.7972	12.7146	0.000392873	0.0029729
12.7977	12.7142	0.00024816	0.00419876
12.7982	12.7137	-0.00150712	0.0037879
12.7987	12.7132	-0.000348028	0.00297601
12.7991	12.7128	9.86491e-05	0.00226982
12.7996	12.7123	0.000288841	0.00311302
12.8001	12.7118	0.000140793	0.00426957
12.8006	12.7114	-0.00155214	0.0038483
12.801	12.7109	-0.000324753	0.00300666
12.8015	12.7104	0.000273771	0.00230268
12.802	12.7099	0.000279371	0.00303861
12.8024	12.7095	0.00012319	0.00430226
12.8029	12.709	-0.00146111	0.00369572
12.8034	12.7085	-0.000365167	0.00281941
12.8039	12.7081	0.000213952	0.0023416
12.8043	12.7076	0.00021035	0.00299421
12.8048	12.7071	0.000147196	0.00415124
12.8053	12.7066	-0.00150125	0.00368686
12.8057	12.7061	-0.000427518	0.00286391
12.8062	12.7057	0.000268634	0.0022899
12.8067	12.7052	0.000180208	0.00302239
12.8072	12.7047	9.27813e-05	0.00436765
12.8076	12.7042	-0.00137548	0.00368638
12.8081	12.7037	-0.000414178	0.00289194
12.8086	12.7033	0.000381869	0.0023693
12.8091	12.7028	-6.91616e-06	0.00316251
12.8095	12.7023	9.45115e-05	0.00430382
12.81	12.7019	-0.0014269	0.00376455
12.8105	12.7014	-0.000305081	0.00279885
12.8109	12.7009	0.000424084	0.00240028
12.8114	12.7004	0.000137458	0.0031871
12.8119	12.7	0.000113452	0.00435348
12.8124	12.6995	-0.00131413	0.00373947
12.8128	12.6991	-0.000394773	0.00289194
12.8133	12.6986	0.000397207	0.00244838
12.8138	12.6981	6.28365e-05	0.00317948
12.8142	12.6977	2.03537e-05	0.00441468
12.8147	12.6972	-0.00142997	0.00376578
12.8152	12.6967	-0.000395308	0.00280319
12.8157	12.6962	0.000449891	0.00240093
12.8161	12.6958	7.89771e-05	0.00323724
12.8166	12.6953	4.03644e-05	0.00437699
12.8171	12.6948	-0.00125404	0.00367097
12.8176	12.6943	-0.000377438	0.00274747
12.818	12.6939	0.000444291	0.00231874
12.8185	12.6934	0.00011932	0.00321684
12.819	12.6929	4.62321e-05	0.00429587
12.8194	12.6925	-0.00138089	0.00375161
12.8199	12.692	-0.000403512	0.00264955
12.8204	12.6915	0.000504377	0.0023743
12.8209	12.6911	-5.16641e-05	0.0032461
12.8213	12.6906	-3.19921e-05	0.00434929
12.8218	12.6901	-0.00126532	0.0037289
12.8223	12.6896	-0.000514945	0.00267618
12.8227	12.6892	0.000497439	0.00240323
12.8232	12.6887	-2.56605e-05	0.003139
12.8237	12.6883	-9.41469e-05	0.00432701
12.8242	12.6878	-0.00120496	0.00363549
12.8246	12.6873	-0.000494738	0.00270576
12.8251	12.6868	0.000573862	0.00237258
12.8256	12.6863	-8.52115e-05	0.00332754
12.8261	12.6859	-0.000152432	0.00430226
12.8265	12.6854	-0.00124557	0.00367441
12.827	12.6849	-0.000430051	0.00259162
12.8275	12.6844	0.000636748	0.00256285
12.8279	12.6839	4.97635e-05	0.00333877
12.8284	12.6835	-0.000181306	0.0043275
12.8289	12.683	-0.00121417	0.00367081
12.8294	12.6825	-0.000493204	0.00266512
12.8298	12.6821	0.000605608	0.00248967
12.8303	12.6816	-2.9727e-05	0.00332754
12.8308	12.6811	-0.000184107	0.00431053
12.8312	12.6806	-0.00118962	0.003541
12.8317	12.6802	-0.000499607	0.00253761
12.8322	12.6797	0.000735179	0.00248156
12.8327	12.6792	-6.04031e-05	0.00338392
12.8331	12.6788	-0.000273602	0.00424638
12.8336	12.6783	-0.00104111	0.00352355
12.8341	12.6778	-0.000563492	0.00252253
12.8346	12.6774	0.000724978	0.00267773
12.835	12.6769	-2.35917e-05	0.00343481
12.8355	12.6764	-0.000296877	0.0043021
12.836	12.6759	-0.0010043	0.00378167
12.8364	12.6754	-0.00057603	0.00255892
12.8369	12.6749	0.000832612	0.00261701
12.8374	12.6745	-4.17299e-05	0.00342268
12.8379	12.674	-0.000329354	0.00425432
12.8383	12.6735	-0.000873392	0.00361229
12.8388	12.6731	-0.000545889	0.00242847
12.8393	12.6726	0.000858419	0.00254507
12.8397	12.6721	-0.000149364	0.00348431
12.8402	12.6717	-0.000385035	0.00424998
12.8407	12.6712	-0.00106232	0.00356419
12.8412	12.6707	-0.000575566	0.00256424
12.8416	12.6702	0.000924373	0.00259784
12.8421	12.6698	-0.000134828	0.00342719
12.8426	12.6693	-0.000402175	0.00437748
12.8431	12.6689	-0.00102624	0.00363688
12.8435	12.6684	-0.000518548	0.00243641
12.844	12.6679	0.00093024	0.00259924
12.8445	12.6675	-8.90105e-05	0.00347856
12.8449	12.667	-0.000507276	0.00427005
12.8454	12.6665	-0.000942146	0.00354003
12.8459	12.666	-0.000557624	0.00242428
12.8464	12.6655	0.000943848	0.00259784
12.8468	12.6651	-7.88088e-05	0.00352339
12.8473	12.6646	-0.000511414	0.00420343
12.8478	12.6641	-0.000877994	0.0036291
12.8482	12.6636	-0.000625647	0.00228088
12.8487	12.6632	0.000940513	0.00264922
12.8492	12.6627	-3.11723e-06	0.00347684
12.8497	12.6623	-0.000597307	0.00422925
12.8501	12.6618	-0.000862388	0.00353617
12.8506	12.6613	-0.000542286	0.0023743
12.8511	12.6608	0.000875826	0.00262743
12.8516	12.6604	-0.000149364	0.00353445
12.852	12.6599	-0.000570697	0.00420155
12.8525	12.6594	-0.00102217	0.00345226
12.853	12.659	-0.000651722	0.00226172
12.8534	12.6585	0.000909035	0.00269609
12.8539	12.658	-5.88693e-05	0.00346471
12.8544	12.6576	-0.000598306	0.00432422
12.8549	12.6571	-0.000779295	0.00358271
12.8553	12.6566	-0.000631051	0.00227482
12.8558	12.6561	0.000858686	0.0028703
12.8563	12.6556	-0.000111483	0.00363565
12.8567	12.6552	-0.00064432	0.0042853
12.8572	12.6547	-0.000755022	0.00354658
12.8577	12.6542	-0.000735082	0.00226048
12.8582	12.6537	0.000910836	0.0026715
12.8586	12.6533	-0.000126821	0.0036481
12.8591	12.6528	-0.000716409	0.00426817
12.8596	12.6523	-0.000728412	0.00346455
12.8601	12.6519	-0.000696737	0.00219075
12.8605	12.6514	0.00082801	0.00274575
12.861	12.6509	-0.000137825	0.00356747
12.8615	12.6504	-0.000729214	0.0042649
12.8619	12.65	-0.0005827	0.0034049
12.8624	12.6495	-0.000809971	0.00226408
12.8629	12.649	0.000805271	0.00285678
12.8634	12.6486	-0.000145761	0.00359066
12.8638	12.6481	-0.000904069	0.00409133
12.8643	12.6476	-0.000651722	0.00345489
12.8648	12.6471	-0.000686999	0.00220304
12.8652	12.6466	0.00088296	0.00262308
12.8657	12.6462	-0.000120757	0.00375676
12.8662	12.6457	-0.000799235	0.00423515
12.8667	12.6452	-0.000698735	0.00350004
12.8671	12.6447	-0.000523149	0.00221361
12.8676	12.6443	0.000943848	0.00274435
12.8681	12.6438	-0.000123289	0.00376906
12.8686	12.6433	-0.00101784	0.004155
12.869	12.6429	-0.000444123	0.00339621
12.8695	12.6424	-0.00066706	0.00214592
12.87	12.6419	0.000931043	0.00266372
12.8704	12.6415	-7.62762e-05	0.00381576
12.8709	12.641	-0.000911203	0.00417164
12.8714	12.6405	-0.000622847	0.0034798
12.8719	12.64	-0.000573497	0.00211413
12.8723	12.6396	0.000792733	0.00278483
12.8728	12.6391	-6.65383e-05	0.00374415
12.8733	12.6387	-0.00102957	0.00420015
12.8737	12.6382	-0.000565097	0.00345677
12.8742	12.6377	-0.000524148	0.00226655
12.8747	12.6372	0.000776128	0.00285908
12.8752	12.6368	-3.15283e-05	0.00378602
12.8756	12.6363	-0.000928609	0.00413009
12.8761	12.6358	-0.000384572	0.00346111
12.8766	12.6353	-0.000465061	0.00218608
12.8771	12.6349	0.00075972	0.00282359
12.8775	12.6344	-1.85092e-06	0.00387788
12.878	12.6339	-0.0012083	0.00408044
12.8785	12.6334	-0.000571696	0.00326806
12.8789	12.633	-0.000465596	0.00215354
12.8794	12.6325	0.000635749	0.0028004
12.8799	12.6321	2.08887e-05	0.00389844
12.8804	12.6316	-0.00105718	0.00404709
12.8808	12.6311	-0.000338557	0.0032919
12.8813	12.6306	-0.000365898	0.00223901
12.8818	12.6301	0.000678161	0.00281581
12.8822	12.6297	-5.34654e-05	0.00388958
12.8827	12.6292	-0.00104058	0.00412526
12.8832	12.6288	-0.000361029	0.00327445
12.8837	12.6283	-0.000429052	0.0023044
12.8841	12.6278	0.000579266	0.00284818
12.8846	12.6273	-7.54737e-05	0.00390263
12.8851	12.6269	-0.00127479	0.00406299
12.8856	12.6264	-0.000571429	0.00325888
12.886	12.6259	-0.000357962	0.00222188
12.8865	12.6254	0.000620679	0.00289677
12.887	12.6249	0.000149729	0.00382543
12.8874	12.6245	-0.00132053	0.0040384
12.8879	12.624	-0.000375101	0.00315457
12.8884	12.6235	-0.000289208	0.00223483
12.8889	12.623	0.000543453	0.00301198
12.8893	12.6226	3.64943e-05	0.0039118
12.8898	12.6221	-0.00126532	0.00409273
12.8903	12.6216	-0.000494471	0.00329238
12.8907	12.6212	-0.000238592	0.00217485
12.8912	12.6207	0.000548857	0.00289226
12.8917	12.6202	-7.90763e-05	0.00405225
12.8922	12.6197	-0.00127372	0.0039649
12.8926	12.6193	-0.000322952	0.00307409
12.8931	12.6188	-0.00025393	0.00227278
12.8936	12.6183	0.000637551	0.00291545
12.8941	12.6179	3.21603e-05	0.00405724
12.8945	12.6174	-0.0013282	0.00396474
12.895	12.6169	-0.000323487	0.00295454
12.8955	12.6164	-0.000170106	0.00222935
12.8959	12.616	0.000443488	0.00294659
12.8964	12.6155	1.5021e-05	0.00400259
12.8969	12.615	-0.00142763	0.00386091
12.8974	12.6145	-0.00038664	0.00301681
12.8978	12.6141	-0.000139359	0.00223745
12.8983	12.6136	0.000409745	0.00279401
12.8988	12.6131	7.38407e-05	0.0041237
