# 1304     AichiSR QXAFS
# Start     : 8.9544
# End       : 9.0544
# Dir       : Backward
# Points    : 300
# ScanTime  : 1.01549
# Date      : 13.04.23 23:12
# Ring Cur. : 0.9[mA]
12.7557	12.6123	3.0894e-05	0.00234644
12.7562	12.6127	0.000412348	0.00292963
12.7566	12.6132	0.000218286	0.00430259
12.7571	12.6136	-0.00145171	0.0039336
12.7576	12.6141	-0.000351363	0.00304296
12.7581	12.6146	0.000151262	0.00225426
12.7585	12.6151	0.000337656	0.00308204
12.759	12.6155	7.25743e-05	0.00428997
12.7595	12.616	-0.00147391	0.00384223
12.7599	12.6165	-0.000309147	0.00304607
12.7604	12.617	0.000181475	0.00237381
12.7609	12.6174	0.000281172	0.00311908
12.7614	12.6179	0.000109118	0.004214
12.7618	12.6184	-0.00156161	0.00386403
12.7623	12.6188	-0.000295076	0.00292914
12.7628	12.6193	0.000199078	0.00237757
12.7632	12.6198	0.000271969	0.00308032
12.7637	12.6203	0.000110385	0.00424498
12.7642	12.6207	-0.00146525	0.0037471
12.7647	12.6212	-0.000314016	0.00291389
12.7651	12.6217	0.000265567	0.00231981
12.7656	12.6222	5.58988e-05	0.00307893
12.7661	12.6226	0.000198347	0.00424375
12.7666	12.6231	-0.00129239	0.00378151
12.767	12.6236	-0.000422382	0.00286359
12.7675	12.624	0.00028144	0.0022323
12.768	12.6245	8.81087e-05	0.00296076
12.7684	12.625	7.53745e-05	0.00417959
12.7689	12.6255	-0.00142357	0.00370243
12.7694	12.6259	-0.000426983	0.00286472
12.7699	12.6264	0.000311313	0.0024551
12.7703	12.6269	6.28365e-05	0.00316906
12.7708	12.6274	2.78264e-05	0.00426833
12.7713	12.6279	-0.00135148	0.0037194
12.7717	12.6283	-0.000504209	0.00289816
12.7722	12.6288	0.000339724	0.00235234
12.7727	12.6293	0.000101449	0.00318947
12.7732	12.6297	0.000142595	0.00430726
12.7736	12.6302	-0.0014391	0.00368252
12.7741	12.6307	-0.000305081	0.00282499
12.7746	12.6311	0.000295975	0.00243035
12.7751	12.6316	0.00014873	0.00314383
12.7755	12.6321	6.15702e-05	0.00430881
12.776	12.6325	-0.00134554	0.00373776
12.7765	12.633	-0.000500873	0.00264504
12.7769	12.6335	0.000441687	0.00234906
12.7774	12.6339	1.83561e-05	0.00312048
12.7779	12.6344	1.37547e-05	0.00425169
12.7784	12.6349	-0.00133614	0.00381404
12.7788	12.6354	-0.000458194	0.00278065
12.7793	12.6359	0.000475502	0.00242707
12.7798	12.6363	0.000157201	0.00321061
12.7802	12.6368	6.81692e-07	0.00422614
12.7807	12.6373	-0.00134507	0.00357788
12.7812	12.6378	-0.000507544	0.00269003
12.7817	12.6382	0.000554457	0.00244919
12.7821	12.6387	9.35127e-05	0.00310663
12.7826	12.6392	-2.61243e-05	0.00426989
12.7831	12.6396	-0.00125458	0.00363967
12.7836	12.6401	-0.000456393	0.00269249
12.784	12.6405	0.00066136	0.0024006
12.7845	12.641	-1.25876e-05	0.00329345
12.785	12.6415	-0.000118153	0.00428997
12.7854	12.642	-0.0012149	0.00354519
12.7859	12.6424	-0.000380238	0.0025717
12.7864	12.6429	0.000530452	0.00235685
12.7869	12.6433	7.41082e-05	0.00329436
12.7873	12.6438	-0.000107951	0.00426506
12.7878	12.6443	-0.00116282	0.00355797
12.7883	12.6448	-0.000540289	0.00267134
12.7887	12.6452	0.000676163	0.00237151
12.7892	12.6457	-4.9934e-05	0.00324487
12.7897	12.6462	-0.000195646	0.00427005
12.7902	12.6467	-0.00112827	0.003659
12.7906	12.6472	-0.00048607	0.00259071
12.7911	12.6476	0.000717844	0.00254835
12.7916	12.6481	7.88692e-06	0.00342391
12.7921	12.6486	-0.000207649	0.00433995
12.7925	12.6491	-0.00119829	0.00361525
12.793	12.6495	-0.000466131	0.00252204
12.7935	12.65	0.000739049	0.00263382
12.7939	12.6505	3.54955e-05	0.00341285
12.7944	12.651	-0.000101548	0.00432841
12.7949	12.6514	-0.00107946	0.00360279
12.7954	12.6519	-0.000475066	0.00254695
12.7958	12.6524	0.000714508	0.00257433
12.7963	12.6528	-4.04636e-05	0.00339572
12.7968	12.6533	-0.000351559	0.00417836
12.7972	12.6538	-0.00102117	0.00362614
12.7977	12.6542	-0.000587034	0.00254228
12.7982	12.6547	0.000856154	0.00254277
12.7987	12.6552	-2.73907e-05	0.00337114
12.7991	12.6557	-0.00030221	0.00427145
12.7996	12.6562	-0.000998897	0.00357353
12.8001	12.6566	-0.000479668	0.00246567
12.8006	12.6571	0.000801401	0.00269265
12.801	12.6576	-0.00011175	0.00338483
12.8015	12.6581	-0.000433653	0.00417787
12.802	12.6585	-0.00102317	0.00366958
12.8024	12.659	-0.000611575	0.00250943
12.8029	12.6595	0.000854085	0.00258883
12.8034	12.6599	-0.00012122	0.00341022
12.8039	12.6604	-0.000392241	0.00427923
12.8043	12.6609	-0.000967953	0.00357632
12.8048	12.6614	-0.000590637	0.00236496
12.8053	12.6618	0.000952516	0.00257031
12.8057	12.6623	-8.67453e-05	0.00347029
12.8062	12.6628	-0.000479935	0.00433963
12.8067	12.6632	-0.0010173	0.00350733
12.8072	12.6637	-0.000397573	0.00237848
12.8076	12.6642	0.000873489	0.00270838
12.8081	12.6646	-0.000105882	0.00347873
12.8086	12.6651	-0.000449526	0.00432626
12.8091	12.6656	-0.00088593	0.00358567
12.8095	12.6661	-0.000520545	0.00231309
12.81	12.6665	0.000973722	0.00271166
12.8105	12.667	-6.62708e-05	0.0034521
12.8109	12.6675	-0.000566363	0.00420466
12.8114	12.668	-0.000818639	0.00356215
12.8119	12.6684	-0.000554557	0.002338
12.8124	12.6689	0.000992128	0.00272395
12.8128	12.6693	-9.94796e-05	0.00339932
12.8133	12.6698	-0.000659658	0.00424809
12.8138	12.6703	-0.000805102	0.00349741
12.8142	12.6708	-0.000648654	0.0022804
12.8147	12.6712	0.000942047	0.00273206
12.8152	12.6717	-0.000157836	0.00354739
12.8157	12.6722	-0.000594703	0.00436486
12.8161	12.6726	-0.000779295	0.00345988
12.8166	12.6731	-0.00065099	0.00234128
12.8171	12.6736	0.000946113	0.00268364
12.8176	12.674	-0.000162901	0.0035338
12.818	12.6745	-0.000688533	0.00421712
12.8185	12.675	-0.000709739	0.00343358
12.819	12.6755	-0.000669592	0.00228523
12.8194	12.676	0.000949984	0.00271756
12.8199	12.6764	-3.89298e-05	0.0036168
12.8204	12.6769	-0.000716409	0.00430554
12.8209	12.6774	-0.000607241	0.00349225
12.8213	12.6779	-0.000717212	0.00234751
12.8218	12.6784	0.0010006	0.00275681
12.8223	12.6788	-0.000157033	0.00362974
12.8227	12.6793	-0.00073708	0.00431923
12.8232	12.6797	-0.000602907	0.00356387
12.8237	12.6802	-0.000733548	0.0022826
12.8242	12.6807	0.000840013	0.00279106
12.8246	12.6812	-9.46819e-05	0.00360107
12.8251	12.6816	-0.000731212	0.0042766
12.8256	12.6821	-0.00074375	0.0034857
12.8261	12.6826	-0.000619244	0.0022513
12.8265	12.683	0.000878893	0.00275058
12.827	12.6835	-0.000102547	0.00365352
12.8275	12.684	-0.00083198	0.00419065
12.8279	12.6845	-0.000589103	0.00345161
12.8284	12.6849	-0.000661923	0.00224008
12.8289	12.6854	0.000846416	0.00276738
12.8294	12.6859	-0.000100282	0.00379429
12.8298	12.6864	-0.00097309	0.00422802
12.8303	12.6869	-0.00054489	0.00333033
12.8308	12.6873	-0.000603442	0.00219107
12.8312	12.6878	0.000944847	0.0027814
12.8317	12.6883	-1.53877e-05	0.00360435
12.8322	12.6888	-0.00105845	0.00415656
12.8327	12.6892	-0.000545158	0.00327133
12.8331	12.6897	-0.000546424	0.00216133
12.8336	12.6901	0.000807607	0.00276583
12.8341	12.6906	-5.55342e-05	0.00374603
12.8346	12.6911	-0.000980759	0.00408618
12.835	12.6916	-0.000533886	0.00345054
12.8355	12.692	-0.000487337	0.00219182
12.836	12.6925	0.000885296	0.00291685
12.8364	12.693	-0.000140892	0.00368826
12.8369	12.6934	-0.000982293	0.00415624
12.8374	12.6939	-0.00051161	0.00340179
12.8379	12.6944	-0.000475601	0.00225318
12.8383	12.6948	0.000719841	0.00283589
12.8388	12.6953	-4.96168e-08	0.00387509
12.8393	12.6958	-0.00112674	0.00407061
12.8397	12.6963	-0.000446923	0.0033255
12.8402	12.6967	-0.000434188	0.00215698
12.8407	12.6972	0.000894231	0.00291046
12.8412	12.6977	0.000114451	0.0038433
12.8416	12.6982	-0.00105718	0.0040457
12.8421	12.6986	-0.000490137	0.00336942
12.8426	12.6991	-0.000448991	0.00219993
12.8431	12.6995	0.000708106	0.00287465
12.8435	12.7	-0.000100282	0.00382945
12.844	12.7005	-0.00108659	0.00395991
12.8445	12.701	-0.000505742	0.00331058
12.8449	12.7014	-0.000532352	0.00225442
12.8454	12.7019	0.000703772	0.00287809
12.8459	12.7024	3.85631e-05	0.00377356
12.8464	12.7028	-0.00116328	0.00396957
12.8468	12.7033	-0.000468128	0.00313465
12.8473	12.7038	-0.000490404	0.00219354
12.8478	12.7043	0.000577732	0.00293585
12.8482	12.7047	-4.65104e-06	0.00394622
12.8487	12.7052	-0.00124304	0.00406191
12.8492	12.7057	-0.00044719	0.00330854
12.8497	12.7062	-0.000291741	0.00219214
12.8501	12.7067	0.000646753	0.00290906
12.8506	12.7072	4.41633e-05	0.00405381
12.8511	12.7076	-0.00123284	0.00406347
12.8516	12.7081	-0.000395041	0.00334032
12.852	12.7086	-0.000193042	0.00221099
12.8525	12.709	0.000536052	0.00289521
12.853	12.7095	-6.71985e-06	0.00391229
12.8534	12.71	-0.00121697	0.0039962
12.8539	12.7104	-0.000349561	0.00313932
12.8544	12.7109	-0.000292008	0.00216584
12.8549	12.7114	0.000581799	0.00293709
12.8553	12.7119	8.65749e-05	0.00392147
12.8558	12.7123	-0.00117248	0.00399792
12.8563	12.7128	-0.000451792	0.00310523
12.8567	12.7133	-0.000313481	0.0022826
12.8572	12.7137	0.000545255	0.0028113
12.8577	12.7142	9.63128e-05	0.00416435
12.8582	12.7147	-0.00140516	0.00390574
12.8586	12.7152	-0.000338557	0.00303673
12.8591	12.7156	-0.000209985	0.00222607
12.8596	12.7161	0.000427615	0.00302116
12.8601	12.7166	0.00019321	0.00403856
12.8605	12.7171	-0.00143657	0.00392131
12.861	12.7176	-0.000354627	0.00316407
12.8615	12.718	-0.00019718	0.00216863
12.8619	12.7185	0.000496904	0.00303689
12.8624	12.719	0.000143593	0.00417852
12.8629	12.7194	-0.00141256	0.0038265
12.8634	12.7199	-0.000402442	0.00314244
12.8638	12.7203	-0.000134026	0.0021646
12.8643	12.7208	0.000375002	0.00305852
12.8648	12.7213	0.000122655	0.00410706
12.8652	12.7218	-0.00140256	0.00387025
12.8657	12.7222	-0.000388174	0.0031594
12.8662	12.7227	-2.25929e-05	0.00232169
12.8667	12.7232	0.00045196	0.00297273
12.8671	12.7236	7.81746e-05	0.00421868
12.8676	12.7241	-0.00153987	0.00394343
12.8681	12.7246	-0.000299142	0.00308434
12.8686	12.725	5.0031e-05	0.00225737
12.869	12.7255	0.00039314	0.00299174
12.8695	12.726	0.000241026	0.00427038
12.87	12.7265	-0.00146084	0.0038469
12.8704	12.7269	-0.000306347	0.00296962
12.8709	12.7274	-1.02513e-05	0.00230907
12.8714	12.7279	0.000315183	0.00290112
12.8719	12.7284	0.000146928	0.00420573
12.8723	12.7288	-0.00149919	0.00377249
12.8728	12.7293	-0.000287674	0.00291964
12.8733	12.7298	0.000116787	0.00230408
12.8737	12.7302	0.000329452	0.00295077
12.8742	12.7307	0.000174537	0.00417353
12.8747	12.7312	-0.00149485	0.00369932
12.8752	12.7317	-0.000375101	0.00301337
12.8756	12.7321	0.000157933	0.0022032
12.8761	12.7326	0.000228755	0.00297928
12.8766	12.7331	0.000165067	0.00416558
12.8771	12.7335	-0.00148799	0.00380707
12.8775	12.734	-0.000382503	0.00298256
12.878	12.7345	0.000208816	0.00236807
12.8785	12.735	0.000315451	0.00294192
12.8789	12.7355	0.000197812	0.00427005
12.8794	12.7359	-0.00155881	0.00376873
12.8799	12.7364	-0.000389904	0.00287325
12.8804	12.7369	0.000179673	0.00233833
12.8808	12.7374	0.00013439	0.00295921
12.8813	12.7379	0.000129325	0.00426211
12.8818	12.7383	-0.00146624	0.0037457
12.8822	12.7388	-0.000328356	0.00287137
12.8827	12.7393	0.00028704	0.00235095
12.8832	12.7397	0.000163337	0.00308778
12.8837	12.7402	0.00018094	0.00428669
12.8841	12.7407	-0.00141643	0.00371038
12.8846	12.7412	-0.000453325	0.0028127
12.8851	12.7416	0.000296243	0.0023816
12.8856	12.7421	0.000115521	0.00311752
12.886	12.7426	0.000121656	0.00425588
12.8865	12.743	-0.00134841	0.00374119
12.887	12.7435	-0.000378169	0.00277828
12.8874	12.744	0.000326919	0.00228384
12.8879	12.7444	0.000115521	0.00311457
12.8884	12.7449	0.000111651	0.00433823
12.8889	12.7454	-0.00140002	0.00363361
12.8893	12.7459	-0.000307346	0.00283498
12.8898	12.7464	0.000485704	0.00256531
12.8903	12.7468	9.32452e-05	0.00311146
12.8907	12.7473	-1.56552e-05	0.00435085
12.8912	12.7478	-0.00131467	0.00376766
12.8917	12.7482	-0.000351827	0.00276771
12.8922	12.7487	0.00046423	0.00243625
12.8926	12.7492	9.40477e-05	0.00322356
12.8931	12.7496	0.000105783	0.0043756
12.8936	12.7501	-0.00128039	0.00372235
12.8941	12.7506	-0.00050214	0.00286284
12.8945	12.751	0.000490038	0.0023371
12.895	12.7515	-2.20579e-05	0.00316251
12.8955	12.752	-5.91735e-06	0.00426662
12.8959	12.7524	-0.00142763	0.00365884
12.8964	12.7529	-0.000358764	0.00265062
12.8969	12.7534	0.00052198	0.00234112
12.8974	12.7538	-3.11723e-06	0.00319365
12.8978	12.7543	-0.000128889	0.00425915
12.8983	12.7548	-0.00118115	0.0036087
12.8988	12.7553	-0.000368235	0.00257047
