# 1304     AichiSR QXAFS
# Start     : 8.9544
# End       : 9.0544
# Dir       : Backward
# Points    : 300
# ScanTime  : 1.01549
# Date      : 13.04.23 22:43
# Ring Cur. : 1[mA]
12.7557	12.612	0.000344861	0.00286891
12.7562	12.6124	0.000188609	0.00417836
12.7566	12.6129	-0.00136375	0.00377561
12.7571	12.6134	-0.000316014	0.0028921
12.7576	12.6138	0.000191213	0.00221082
12.7581	12.6143	9.4244e-05	0.00282843
12.7585	12.6148	0.000196278	0.00417492
12.759	12.6153	-0.0015488	0.00366786
12.7595	12.6157	-0.000387104	0.00288152
12.7599	12.6162	0.000153599	0.0021769
12.7604	12.6167	0.00024816	0.00301509
12.7609	12.6172	0.00026043	0.00418287
12.7614	12.6176	-0.00158335	0.00354486
12.7618	12.6181	-0.000368698	0.00277131
12.7623	12.6186	0.000135924	0.00224991
12.7628	12.619	0.000166404	0.00282097
12.7632	12.6195	0.000192746	0.00409461
12.7637	12.62	-0.00145217	0.00368343
12.7642	12.6205	-0.00040551	0.00290316
12.7647	12.6209	0.000290108	0.00218731
12.7651	12.6214	0.0001666	0.00301354
12.7656	12.6219	0.000217751	0.00418442
12.7661	12.6224	-0.00136555	0.00364794
12.7666	12.6228	-0.000433118	0.0028208
12.767	12.6233	0.00029931	0.00220181
12.7675	12.6238	8.09747e-05	0.00288431
12.768	12.6242	5.82351e-05	0.00413181
12.7684	12.6247	-0.00134941	0.00361041
12.7689	12.6252	-0.000448724	0.00267134
12.7694	12.6257	0.000330789	0.00232727
12.7699	12.6262	9.37802e-05	0.00296855
12.7703	12.6266	2.7505e-06	0.00428063
12.7708	12.6271	-0.00148258	0.00361648
12.7713	12.6276	-0.000299213	0.0026321
12.7717	12.6281	0.00033152	0.0023176
12.7722	12.6285	0.000191944	0.00293225
12.7727	12.629	0.000120586	0.00423548
12.7732	12.6295	-0.00141356	0.00361697
12.7736	12.6299	-0.000394309	0.00261546
12.7741	12.6304	0.000426884	0.00229785
12.7746	12.6309	-2.69268e-05	0.00312359
12.7751	12.6314	0.000113987	0.00413723
12.7755	12.6318	-0.0013366	0.00357133
12.776	12.6323	-0.00044159	0.00253729
12.7765	12.6328	0.00059587	0.00234595
12.7769	12.6332	1.83561e-05	0.00302943
12.7774	12.6337	-6.98735e-06	0.00423285
12.7779	12.6342	-0.00134661	0.0035483
12.7784	12.6346	-0.000355429	0.00270232
12.7788	12.6351	0.000506642	0.00237258
12.7793	12.6356	2.52226e-05	0.0030859
12.7798	12.6361	-1.20526e-05	0.0043261
12.7802	12.6365	-0.00123871	0.00362738
12.7807	12.637	-0.000496807	0.00259645
12.7812	12.6375	0.000653156	0.00245542
12.7817	12.638	9.86491e-05	0.00306427
12.7821	12.6384	-1.0055e-05	0.0042839
12.7826	12.6389	-0.0012277	0.00356419
12.7831	12.6394	-0.000445656	0.00258915
12.7836	12.6398	0.000641885	0.0023707
12.784	12.6403	-8.77442e-05	0.0030909
12.7845	12.6408	-0.000125822	0.00412231
12.785	12.6412	-0.00118809	0.00364885
12.7854	12.6417	-0.000328819	0.0024646
12.7859	12.6422	0.00054192	0.00239175
12.7864	12.6426	-3.37934e-05	0.00322806
12.7869	12.6431	3.67618e-05	0.00420327
12.7873	12.6436	-0.00115128	0.00347684
12.7878	12.644	-0.000454859	0.00253761
12.7883	12.6445	0.000752319	0.00242551
12.7887	12.645	-4.96168e-08	0.00311736
12.7892	12.6455	-0.000134293	0.0042839
12.7897	12.6459	-0.00107612	0.00344603
12.7902	12.6464	-0.000554022	0.00243518
12.7906	12.6469	0.000617344	0.00244608
12.7911	12.6474	-5.12003e-05	0.00312048
12.7916	12.6479	-0.000210181	0.00418582
12.7921	12.6483	-0.0011198	0.00354658
12.7925	12.6488	-0.000541555	0.00239454
12.793	12.6493	0.000661557	0.00240044
12.7935	12.6497	-7.39399e-05	0.00307426
12.7939	12.6502	-0.000191044	0.00419532
12.7944	12.6507	-0.00112421	0.00343948
12.7949	12.6512	-0.00051828	0.00239765
12.7954	12.6517	0.000771259	0.00241338
12.7958	12.6521	-9.66795e-05	0.00333517
12.7963	12.6526	-0.0003705	0.00418475
12.7968	12.653	-0.00104491	0.00346767
12.7972	12.6535	-0.000462528	0.00244575
12.7977	12.654	0.000835947	0.00249976
12.7982	12.6545	3.95619e-05	0.00327273
12.7987	12.6549	-0.000381236	0.00420434
12.7991	12.6554	-0.000966152	0.0034798
12.7996	12.6559	-0.000411913	0.00228384
12.8001	12.6564	0.000881694	0.0025127
12.8006	12.6569	2.17883e-07	0.00335729
12.801	12.6573	-0.000427518	0.00424965
12.8015	12.6578	-0.000950083	0.00346299
12.802	12.6583	-0.000598306	0.00225302
12.8024	12.6587	0.000942047	0.0024333
12.8029	12.6592	-8.77442e-05	0.00326527
12.8034	12.6597	-0.000388905	0.00412338
12.8039	12.6601	-0.000913735	0.00348184
12.8043	12.6606	-0.000636116	0.00227015
12.8048	12.6611	0.000972991	0.00247271
12.8053	12.6616	4.44308e-05	0.00341956
12.8057	12.662	-0.000491671	0.00417025
12.8062	12.6625	-0.00088873	0.0033931
12.8067	12.663	-0.000565828	0.00229383
12.8072	12.6634	0.000977325	0.00255785
12.8076	12.6639	3.34267e-05	0.00333549
12.8081	12.6644	-0.000510344	0.00417648
12.8086	12.6648	-0.000870057	0.00356543
12.8091	12.6653	-0.000646853	0.00224041
12.8095	12.6658	0.00102407	0.00260611
12.81	12.6663	-5.68005e-05	0.00340571
12.8105	12.6667	-0.000618977	0.00404167
12.8109	12.6672	-0.000963887	0.00336212
12.8114	12.6677	-0.000562761	0.00220476
12.8119	12.6682	0.000981124	0.00255318
12.8124	12.6686	-0.000137825	0.00341892
12.8128	12.6691	-0.000684467	0.00416247
12.8133	12.6696	-0.000784699	0.00345816
12.8138	12.67	-0.000588835	0.00222795
12.8142	12.6705	0.00107829	0.00263242
12.8147	12.671	7.61942e-06	0.00346857
12.8152	12.6714	-0.000644588	0.00419548
12.8157	12.6719	-0.000750153	0.00339744
12.8161	12.6724	-0.000765758	0.00213282
12.8166	12.6728	0.000959186	0.00258915
12.8171	12.6733	-4.40662e-05	0.0034857
12.8176	12.6738	-0.000677065	0.00407356
12.818	12.6742	-0.000686197	0.00334
12.8185	12.6747	-0.000585233	0.00215043
12.819	12.6752	0.000990594	0.00261841
12.8194	12.6757	-0.000100015	0.00356247
12.8199	12.6762	-0.000737882	0.00409584
12.8204	12.6767	-0.000726414	0.00335573
12.8209	12.6771	-0.00067653	0.00207398
12.8213	12.6776	0.00086582	0.0027006
12.8218	12.6781	-7.7275e-05	0.00355641
12.8223	12.6786	-0.000829179	0.00413149
12.8227	12.679	-0.000832978	0.00342686
12.8232	12.6795	-0.000564027	0.00220911
12.8237	12.68	0.000920306	0.00263881
12.8242	12.6804	-0.000127623	0.00359017
12.8246	12.6809	-0.00087366	0.00410985
12.8251	12.6814	-0.000734547	0.00329641
12.8256	12.6819	-0.000648654	0.00222779
12.8261	12.6823	0.00086302	0.00269437
12.8265	12.6828	-0.000128622	0.00361541
12.827	12.6833	-0.000705405	0.00405815
12.8275	12.6837	-0.000510879	0.00322323
12.8279	12.6842	-0.000656056	0.00202851
12.8284	12.6847	0.000940513	0.00262619
12.8289	12.6852	-9.48782e-05	0.00356419
12.8294	12.6856	-0.000852187	0.00400882
12.8298	12.6861	-0.000613644	0.00321078
12.8303	12.6866	-0.000480666	0.0020539
12.8308	12.6871	0.000887829	0.00274247
12.8312	12.6876	-8.10739e-05	0.00364483
12.8317	12.688	-0.000850118	0.0040493
12.8322	12.6885	-0.000641252	0.0032737
12.8327	12.689	-0.000656591	0.00220116
12.8331	12.6894	0.000785599	0.00280942
12.8336	12.6899	4.13632e-05	0.00362926
12.8341	12.6904	-0.000942681	0.00400243
12.8346	12.6908	-0.000556358	0.00324315
12.835	12.6913	-0.000665526	0.00216632
12.8355	12.6918	0.000789933	0.00269346
12.836	12.6922	-2.4858e-05	0.00361664
12.8364	12.6927	-0.00103318	0.00404135
12.8369	12.6932	-0.00054769	0.00311769
12.8374	12.6936	-0.000501141	0.00214093
12.8379	12.6941	0.000793999	0.00275542
12.8383	12.6946	-2.76582e-05	0.00380658
12.8388	12.6951	-0.00102064	0.00406954
12.8393	12.6955	-0.000505475	0.00325888
12.8397	12.696	-0.000535152	0.00208472
12.8402	12.6965	0.000722178	0.00271043
12.8407	12.697	-0.000101816	0.00375644
12.8412	12.6974	-0.00108632	0.00396367
12.8416	12.6979	-0.000451792	0.00320208
12.8421	12.6984	-0.000492206	0.00209642
12.8426	12.6988	0.000691501	0.00274903
12.8431	12.6993	-3.89298e-05	0.00383026
12.8435	12.6998	-0.00120876	0.00397596
12.844	12.7002	-0.000481201	0.00319038
12.8445	12.7007	-0.000355162	0.00202915
12.8449	12.7012	0.000668958	0.00285957
12.8454	12.7017	3.77606e-05	0.00378806
12.8459	12.7021	-0.0012083	0.00396023
12.8464	12.7026	-0.000393774	0.003021
12.8468	12.7031	-0.000278739	0.00205546
12.8473	12.7035	0.000661093	0.00267848
12.8478	12.704	5.79676e-05	0.00378758
12.8482	12.7045	-0.00109453	0.00400087
12.8487	12.705	-0.000359763	0.00309745
12.8492	12.7054	-0.000368163	0.00193074
12.8497	12.7059	0.000622213	0.00274124
12.8501	12.7064	8.991e-05	0.00382167
12.8506	12.7069	-0.00129599	0.00397489
12.8511	12.7074	-0.000507009	0.00305648
12.8516	12.7078	-0.000161099	0.00206152
12.852	12.7083	0.000601471	0.00275837
12.8525	12.7088	0.000129058	0.00400866
12.853	12.7093	-0.00118402	0.00390155
12.8534	12.7097	-0.000362831	0.00316407
12.8539	12.7102	-0.000216049	0.00206947
12.8544	12.7107	0.000488504	0.0028703
12.8549	12.7111	-2.10591e-05	0.00388271
12.8553	12.7116	-0.00136088	0.00380191
12.8558	12.7121	-0.000259798	0.00301633
12.8563	12.7125	-0.000140696	0.00216772
12.8567	12.713	0.000564195	0.00279557
12.8572	12.7135	4.02932e-05	0.0040166
12.8577	12.714	-0.0014307	0.00378479
12.8582	12.7144	-0.000335757	0.00298444
12.8586	12.7149	-0.000121755	0.00215354
12.8591	12.7154	0.000451692	0.00279278
12.8596	12.7159	7.99759e-05	0.00392475
12.8601	12.7163	-0.00130159	0.00377421
12.8605	12.7168	-0.000344889	0.00297585
12.861	12.7173	-0.00011282	0.00210979
12.8615	12.7178	0.000568529	0.00288071
12.8619	12.7182	0.000206479	0.0039481
12.8624	12.7187	-0.00145551	0.00379536
12.8629	12.7192	-0.000404779	0.00301805
12.8634	12.7196	-6.75372e-05	0.0021529
12.8638	12.7201	0.000396743	0.00290095
12.8643	12.7206	0.000147998	0.004096
12.8648	12.721	-0.00149332	0.0037915
12.8652	12.7215	-0.00027387	0.00298052
12.8657	12.722	-2.61243e-05	0.00218935
12.8662	12.7224	0.000448357	0.00283916
12.8667	12.7229	1.80886e-05	0.0039699
12.8671	12.7234	-0.001319	0.0038528
12.8676	12.7238	-0.000392508	0.00291578
12.8681	12.7243	-4.27287e-05	0.0022971
12.8686	12.7248	0.000373932	0.0028739
12.869	12.7253	0.000198079	0.0040552
12.8695	12.7257	-0.0015266	0.00377356
12.87	12.7262	-0.000429516	0.00291857
12.8704	12.7267	0.000157933	0.00217534
12.8709	12.7272	0.000332055	0.00286112
12.8714	12.7276	9.83816e-05	0.00422769
12.8719	12.7281	-0.00144937	0.0036903
12.8723	12.7286	-0.000379168	0.00285006
12.8728	12.7291	0.000175339	0.00225597
12.8733	12.7295	0.000339724	0.00292496
12.8737	12.73	6.99705e-05	0.00410158
12.8742	12.7305	-0.00143277	0.00368686
12.8747	12.7309	-0.000445656	0.00292914
12.8752	12.7314	0.000219552	0.00226048
12.8756	12.7319	0.00034866	0.00282236
12.8761	12.7324	0.000178407	0.00417615
12.8766	12.7328	-0.00144531	0.00378962
12.8771	12.7333	-0.00033442	0.00285489
12.8775	12.7338	0.000138261	0.00221378
12.878	12.7342	0.000260698	0.00285473
12.8785	12.7347	0.000164335	0.0041514
12.8789	12.7352	-0.00147445	0.00354207
12.8794	12.7357	-0.000366701	0.00276197
12.8799	12.7362	0.000256364	0.00225458
12.8804	12.7366	0.000281172	0.00299469
12.8808	12.7371	0.00019988	0.00421229
12.8813	12.7376	-0.00138162	0.00371317
12.8818	12.7381	-0.000327018	0.00281442
12.8822	12.7385	0.000278372	0.00220755
12.8827	12.739	4.66959e-05	0.00289006
12.8832	12.7395	0.000182741	0.00411329
12.8837	12.7399	-0.00147671	0.00363811
12.8841	12.7404	-0.000217387	0.00284072
12.8846	12.7409	0.000297045	0.00221689
12.8851	12.7414	0.000264033	0.00288243
12.8856	12.7418	0.000149461	0.00416402
12.886	12.7423	-0.00135808	0.00363811
12.8865	12.7428	-0.000221185	0.00282392
12.887	12.7432	0.000402343	0.00211602
12.8874	12.7437	0.000141061	0.00298675
12.8879	12.7442	0.000188876	0.00422114
12.8884	12.7447	-0.00140562	0.00357756
12.8889	12.7451	-0.000416782	0.00273673
12.8893	12.7456	0.000325385	0.00224524
12.8898	12.7461	-5.77993e-05	0.00299313
12.8903	12.7466	7.69083e-05	0.00413927
12.8907	12.747	-0.0013228	0.00356264
12.8912	12.7475	-0.000445924	0.00262619
12.8917	12.748	0.000344058	0.00213765
12.8922	12.7485	8.79124e-05	0.00298846
12.8926	12.7489	0.000103714	0.00433544
12.8931	12.7494	-0.00137909	0.00355313
12.8936	12.7498	-0.000371302	0.00271477
12.8941	12.7503	0.000524513	0.00236807
12.8945	12.7508	0.000119855	0.00310663
12.895	12.7513	8.88573e-06	0.00421884
12.8955	12.7517	-0.00129112	0.00363532
12.8959	12.7522	-0.000412448	0.00264316
12.8964	12.7527	0.000444487	0.00227278
12.8969	12.7531	-1.13213e-05	0.00319038
12.8974	12.7536	-1.25876e-05	0.00417353
12.8978	12.7541	-0.00125305	0.00363172
12.8983	12.7545	-0.000407846	0.00262947
12.8988	12.755	0.000560593	0.00234906
