# 1304     AichiSR QXAFS
# Start     : 8.9544
# End       : 9.0544
# Dir       : Backward
# Points    : 300
# ScanTime  : 1.01549
# Date      : 13.04.23 23:30
# Ring Cur. : 1[mA]
12.7557	12.6123	0.00101287	0.00267618
12.7562	12.6128	-0.000124021	0.00351372
12.7566	12.6132	-0.000598306	0.00430087
12.7571	12.6137	-0.00077316	0.00359017
12.7576	12.6142	-0.000601106	0.00237913
12.7581	12.6147	0.000969121	0.00268192
12.7585	12.6151	-4.96665e-05	0.00350798
12.759	12.6156	-0.000590102	0.00429652
12.7595	12.6161	-0.000715607	0.00350643
12.7599	12.6166	-0.000617443	0.00225286
12.7604	12.617	0.00101053	0.00282376
12.7609	12.6175	-1.85092e-06	0.0034725
12.7614	12.618	-0.000655057	0.00418115
12.7618	12.6185	-0.000705405	0.00349537
12.7623	12.6189	-0.000648654	0.00225442
12.7628	12.6194	0.00092851	0.00273797
12.7632	12.6199	-8.03426e-05	0.00359189
12.7637	12.6203	-0.0006888	0.00426678
12.7642	12.6208	-0.000608775	0.00351389
12.7647	12.6213	-0.000648119	0.00219526
12.7651	12.6218	0.000876825	0.00273689
12.7656	12.6222	-0.000105882	0.0034689
12.7661	12.6227	-0.000828377	0.00420606
12.7666	12.6232	-0.000693134	0.0034303
12.767	12.6236	-0.000659926	0.0022309
12.7675	12.6241	0.00100467	0.00267929
12.768	12.6246	-8.26077e-05	0.00373357
12.7684	12.6251	-0.00098536	0.00411264
12.7689	12.6255	-0.000616712	0.00347217
12.7694	12.626	-0.000704406	0.00215961
12.7699	12.6265	0.00094178	0.00272084
12.7703	12.627	-6.75372e-05	0.00369653
12.7708	12.6275	-0.000901268	0.00411125
12.7713	12.6279	-0.000639184	0.00347947
12.7717	12.6284	-0.000546156	0.00219402
12.7722	12.6289	0.00094178	0.00276443
12.7727	12.6293	-3.30621e-05	0.00370055
12.7732	12.6298	-0.000928609	0.00406422
12.7736	12.6303	-0.000442321	0.00339916
12.7741	12.6307	-0.000551757	0.0021733
12.7746	12.6312	0.000946113	0.00281737
12.7751	12.6317	-6.29357e-05	0.00374522
12.7755	12.6322	-0.000998897	0.00404167
12.776	12.6326	-0.0004766	0.00331337
12.7765	12.6331	-0.000436721	0.00208922
12.7769	12.6335	0.000895498	0.00284899
12.7774	12.634	-1.53877e-05	0.00370023
12.7779	12.6345	-0.000977959	0.00402079
12.7784	12.635	-0.000429052	0.00334295
12.7788	12.6355	-0.000470197	0.00210577
12.7793	12.6359	0.000908303	0.0027909
12.7798	12.6364	-4.35312e-05	0.00383863
12.7802	12.6369	-0.00100196	0.00408183
12.7807	12.6374	-0.000404779	0.00328239
12.7812	12.6378	-0.000363098	0.00219837
12.7817	12.6383	0.000754387	0.00287325
12.7821	12.6388	8.88573e-06	0.00382043
12.7826	12.6392	-0.00111067	0.00405332
12.7831	12.6397	-0.000471	0.00328862
12.7836	12.6401	-0.00032115	0.00209422
12.784	12.6406	0.000728313	0.0028703
12.7845	12.6411	-6.44695e-05	0.00393237
12.785	12.6416	-0.0011088	0.00409552
12.7854	12.642	-0.00034109	0.00331648
12.7859	12.6425	-0.000253395	0.00233382
12.7864	12.643	0.000712707	0.00287513
12.7869	12.6434	4.87647e-05	0.00395916
12.7873	12.6439	-0.00119703	0.00398235
12.7878	12.6444	-0.000432922	0.00311457
12.7883	12.6448	-0.000178239	0.00220508
12.7887	12.6453	0.000685099	0.00313293
12.7892	12.6458	9.68478e-05	0.00390622
12.7897	12.6463	-0.00119449	0.00396785
12.7902	12.6468	-0.000454592	0.00322135
12.7906	12.6472	-0.000146564	0.00224647
12.7911	12.6477	0.000575931	0.00295486
12.7916	12.6482	1.34872e-05	0.00400055
12.7921	12.6487	-0.00127092	0.00391041
12.7925	12.6491	-0.0003649	0.003099
12.793	12.6496	-4.24612e-05	0.00226129
12.7935	12.6501	0.000547056	0.00294627
12.7939	12.6506	0.000102983	0.00408011
12.7944	12.651	-0.00130033	0.00399588
12.7949	12.6515	-0.000414249	0.00309326
12.7954	12.652	-2.51255e-05	0.00222656
12.7958	12.6524	0.000568262	0.00288743
12.7963	12.6529	0.000174269	0.00407528
12.7968	12.6534	-0.00136681	0.00396474
12.7972	12.6539	-0.00027667	0.00303345
12.7977	12.6543	-3.04583e-05	0.00226859
12.7982	12.6548	0.000512777	0.00291996
12.7987	12.6553	0.000114986	0.00408339
12.7991	12.6558	-0.00138108	0.00385887
12.7996	12.6562	-0.000270535	0.00301058
12.8001	12.6567	-1.95253e-05	0.00226424
12.8006	12.6572	0.000468832	0.00301976
12.801	12.6577	0.000276838	0.00428218
12.8015	12.6582	-0.00139082	0.00379708
12.802	12.6586	-0.000338022	0.00303968
12.8024	12.6591	9.68478e-05	0.00232013
12.8029	12.6595	0.000331253	0.00292496
12.8034	12.66	0.000167938	0.00415205
12.8039	12.6605	-0.00140669	0.00383289
12.8043	12.661	-0.000334491	0.00296683
12.8048	12.6614	8.55761e-05	0.00224975
12.8053	12.6619	0.000402076	0.00296667
12.8057	12.6624	0.000164335	0.0041033
12.8062	12.6628	-0.00142023	0.00375037
12.8067	12.6633	-0.00030048	0.00302427
12.8072	12.6638	0.000185006	0.00221614
12.8076	12.6642	0.000283437	0.00295282
12.8081	12.6647	0.000169936	0.0042372
12.8086	12.6652	-0.00137702	0.00385329
12.8091	12.6657	-0.000349026	0.00307876
12.8095	12.6661	0.000152065	0.00227981
12.81	12.6666	0.000278836	0.00306958
12.8105	12.6671	0.000258896	0.00430463
12.8109	12.6676	-0.00142637	0.00385624
12.8114	12.668	-0.000444925	0.00288587
12.8119	12.6685	0.000195011	0.00228679
12.8124	12.669	0.00016767	0.00299174
12.8128	12.6694	0.000242025	0.00433061
12.8133	12.6699	-0.00142817	0.00377872
12.8138	12.6704	-0.000305277	0.00289489
12.8142	12.6708	0.00028144	0.00240168
12.8147	12.6713	0.000178407	0.00315145
12.8152	12.6718	0.000187877	0.00435429
12.8157	12.6722	-0.00137828	0.00368391
12.8161	12.6727	-0.000326287	0.00286284
12.8166	12.6732	0.00032592	0.00224556
12.8171	12.6736	9.07125e-05	0.00306164
12.8176	12.6741	0.000132393	0.00427193
12.818	12.6746	-0.00138162	0.00374849
12.8185	12.6751	-0.000413714	0.00279885
12.819	12.6756	0.000414613	0.00237381
12.8194	12.676	3.95619e-05	0.00309278
12.8199	12.6765	9.35127e-05	0.00424203
12.8204	12.677	-0.00137368	0.00371161
12.8209	12.6775	-0.000425449	0.00281925
12.8213	12.6779	0.00045196	0.00233817
12.8218	12.6784	4.72309e-05	0.00307393
12.8223	12.6789	8.71099e-05	0.00434307
12.8227	12.6793	-0.00121163	0.00366662
12.8232	12.6798	-0.000327553	0.00283761
12.8237	12.6803	0.000482101	0.00245944
12.8242	12.6808	9.96479e-05	0.00319365
12.8246	12.6812	2.34213e-05	0.00430398
12.8251	12.6817	-0.00125224	0.00358083
12.8256	12.6822	-0.000413446	0.00280507
12.8261	12.6826	0.000622944	0.00250754
12.8265	12.6831	5.69688e-05	0.0032796
12.827	12.6836	4.55181e-06	0.00427424
12.8275	12.6841	-0.00114001	0.00367081
12.8279	12.6845	-0.000398108	0.00271773
12.8284	12.685	0.000543721	0.00251753
12.8289	12.6855	0.000139259	0.00317153
12.8294	12.686	2.19587e-05	0.00437887
12.8298	12.6865	-0.00118222	0.00368842
12.8303	12.6869	-0.000347225	0.00266946
12.8308	12.6874	0.000606607	0.00245805
12.8312	12.6879	5.61663e-05	0.0032592
12.8317	12.6884	-7.70075e-05	0.00428686
12.8322	12.6888	-0.00123897	0.00367736
12.8327	12.6893	-0.000458194	0.00251828
12.8331	12.6898	0.000637016	0.00241306
12.8336	12.6902	-4.38354e-06	0.00326994
12.8341	12.6907	-2.66593e-05	0.00431611
12.8346	12.6912	-0.00118169	0.00370399
12.835	12.6916	-0.000324486	0.00255162
12.8355	12.6921	0.000739317	0.00243904
12.836	12.6926	7.69083e-05	0.00332647
12.8364	12.693	-0.000191044	0.00429652
12.8369	12.6935	-0.00105718	0.00364638
12.8374	12.694	-0.000471464	0.00259038
12.8379	12.6944	0.000791199	0.00247083
12.8383	12.6949	-3.78598e-05	0.00332722
12.8388	12.6954	-0.00017057	0.00439133
12.8393	12.6959	-0.00104725	0.00365868
12.8397	12.6963	-0.000482735	0.00248559
12.8402	12.6968	0.000858419	0.00249713
12.8407	12.6973	-1.10538e-05	0.00337548
12.8412	12.6978	-0.000299213	0.00431971
12.8416	12.6982	-0.00103211	0.00366007
12.8421	12.6987	-0.000542554	0.00252795
12.8426	12.6992	0.000818807	0.00262431
12.8431	12.6996	-7.44037e-05	0.00340179
12.8435	12.7001	-0.000194112	0.00431504
12.844	12.7006	-0.0008964	0.00365106
12.8445	12.701	-0.000448724	0.00248951
12.8449	12.7015	0.000951981	0.0027028
12.8454	12.702	-6.78047e-05	0.00337581
12.8459	12.7025	-0.000378971	0.0044237
12.8464	12.7029	-0.000927539	0.00358722
12.8468	12.7034	-0.000453593	0.00239502
12.8473	12.7039	0.000961987	0.0025572
12.8478	12.7043	-8.71746e-06	0.00355346
12.8482	12.7048	-0.000524416	0.00433217
12.8487	12.7053	-0.000963887	0.00347078
12.8492	12.7058	-0.000476868	0.0023838
12.8497	12.7063	0.00103688	0.00272879
12.8501	12.7067	-8.06101e-05	0.00341924
12.8506	12.7072	-0.000509345	0.00432438
12.8511	12.7077	-0.000916339	0.00358132
12.8516	12.7082	-0.000593972	0.00231825
12.852	12.7087	0.00100827	0.00262619
12.8525	12.7091	-2.15229e-05	0.00362271
12.853	12.7096	-0.000556893	0.00425277
12.8534	12.71	-0.000738881	0.00354519
12.8539	12.7105	-0.00060264	0.00232013
12.8544	12.711	0.00105635	0.00278967
12.8549	12.7115	-0.000121488	0.0035978
12.8553	12.7119	-0.000626646	0.00428251
12.8558	12.7124	-0.000780561	0.0036204
12.8563	12.7129	-0.000552024	0.00230145
12.8567	12.7133	0.00114071	0.0027101
12.8572	12.7138	-0.000132492	0.00362443
12.8577	12.7143	-0.000678599	0.00424482
12.8582	12.7148	-0.000735082	0.00357665
12.8586	12.7152	-0.000562029	0.00226236
12.8591	12.7157	0.00108676	0.00275853
12.8596	12.7162	-8.9278e-05	0.00353477
12.8601	12.7167	-0.00062051	0.00414862
12.8605	12.7172	-0.000732746	0.00349053
12.861	12.7176	-0.000631247	0.00223278
12.8615	12.7181	0.00104554	0.0027705
12.8619	12.7186	-0.000160832	0.00353756
12.8624	12.719	-0.000678795	0.00413895
12.8629	12.7195	-0.000569627	0.00347094
12.8634	12.7199	-0.000620243	0.00223525
12.8638	12.7204	0.00103101	0.00280524
12.8643	12.7209	-3.09933e-05	0.00353584
12.8648	12.7214	-0.000817373	0.00415624
12.8652	12.7218	-0.000586035	0.00341924
12.8657	12.7223	-0.000596505	0.00219166
12.8662	12.7228	0.00096072	0.00284727
12.8667	12.7232	-2.94595e-05	0.00370834
12.8671	12.7237	-0.000835779	0.00421712
12.8676	12.7242	-0.000554824	0.00344071
12.8681	12.7246	-0.000471	0.00221099
12.8686	12.7251	0.00100006	0.00278623
12.869	12.7256	-4.85965e-05	0.00366179
12.8695	12.7261	-0.000945481	0.00419328
12.87	12.7265	-0.00059984	0.00342407
12.8704	12.727	-0.000491403	0.00217485
12.8709	12.7275	0.00100773	0.00282376
12.8714	12.728	-0.000106685	0.00371113
12.8719	12.7284	-0.0010007	0.00415656
12.8723	12.7289	-0.000425717	0.0033604
12.8728	12.7294	-0.000532085	0.00233865
12.8733	12.7298	0.000967854	0.00279058
12.8737	12.7303	-0.000103082	0.00376315
12.8742	12.7308	-0.000930143	0.0041346
12.8747	12.7313	-0.000477331	0.00332164
12.8752	12.7318	-0.000477135	0.00219263
12.8756	12.7322	0.000782799	0.00287792
12.8761	12.7327	0.000109386	0.00404119
12.8766	12.7331	-0.00106205	0.00408044
12.8771	12.7336	-0.000375636	0.00334263
12.8775	12.7341	-0.000507276	0.00221909
12.878	12.7346	0.000737516	0.00282859
12.8785	12.7351	3.5228e-05	0.00386993
12.8789	12.7355	-0.00111267	0.00418958
12.8794	12.736	-0.00041498	0.00328567
12.8799	12.7365	-0.000406045	0.00214887
12.8804	12.737	0.000906234	0.00283449
12.8808	12.7375	9.68823e-06	0.00386247
12.8813	12.7379	-0.00121183	0.00404167
12.8818	12.7384	-0.000408845	0.00330698
12.8822	12.7389	-0.000189243	0.00230719
12.8827	12.7393	0.000848217	0.00287932
12.8832	12.7398	3.06265e-05	0.00399497
12.8837	12.7403	-0.00112214	0.00389066
12.8841	12.7407	-0.000500606	0.00330156
12.8846	12.7412	-0.000255928	0.00213502
12.8851	12.7417	0.000685099	0.00282638
12.8856	12.7422	4.46983e-05	0.00394171
12.886	12.7426	-0.00119296	0.00405831
12.8865	12.7431	-0.000401176	0.00313669
12.887	12.7436	-0.000157764	0.00221738
12.8874	12.744	0.00064242	0.0028812
12.8879	12.7445	0.000104981	0.00394654
12.8884	12.745	-0.00130439	0.00395245
12.8889	12.7455	-0.000445121	0.00309589
12.8893	12.7459	-0.000135292	0.00228588
12.8898	12.7464	0.000584135	0.00294315
12.8903	12.7469	0.000142595	0.00406749
12.8907	12.7474	-0.00133894	0.00388738
12.8912	12.7478	-0.000355697	0.00321996
12.8917	12.7483	-9.36119e-05	0.0022731
12.8922	12.7488	0.000405946	0.00287964
12.8926	12.7492	7.5107e-05	0.00401939
12.8931	12.7497	-0.0013236	0.00397408
12.8936	12.7502	-0.000395308	0.0030909
12.8941	12.7506	2.90927e-05	0.0021937
12.8945	12.7511	0.000526581	0.00283777
12.895	12.7516	9.45827e-05	0.00409879
12.8955	12.7521	-0.0013042	0.00391041
12.8959	12.7525	-0.000345424	0.00318447
12.8964	12.753	-6.8536e-05	0.00228121
12.8969	12.7534	0.00043482	0.00306196
12.8974	12.7539	0.000165869	0.00413009
12.8978	12.7544	-0.00146831	0.00390541
12.8983	12.7549	-0.000281271	0.00306647
12.8988	12.7553	1.19533e-05	0.00230129
