# 1304     AichiSR QXAFS
# Start     : 8.9544
# End       : 9.0544
# Dir       : Forward
# Points    : 300
# ScanTime  : 1.01549
# Date      : 13.04.23 22:53
# Ring Cur. : 0.9[mA]
12.7557	12.756	-0.000625647	0.00415968
12.7562	12.7555	-0.00087926	0.00344243
12.7566	12.7551	-0.000766757	0.0022418
12.7571	12.7546	0.00101314	0.00269142
12.7576	12.7541	-0.000170837	0.00365261
12.7581	12.7536	-0.000777226	0.00415173
12.7585	12.7532	-0.000784628	0.00339326
12.759	12.7527	-0.000567362	0.00228556
12.7595	12.7523	0.00091797	0.00273861
12.7599	12.7518	-0.000154233	0.00360107
12.7604	12.7513	-0.000838115	0.00413428
12.7609	12.7508	-0.000722544	0.00340228
12.7614	12.7504	-0.000589103	0.00213953
12.7618	12.7499	0.000931043	0.00258915
12.7623	12.7494	-9.6412e-05	0.00361525
12.7628	12.749	-0.000870325	0.00419844
12.7632	12.7485	-0.000568896	0.00340195
12.7637	12.7481	-0.000674996	0.00223294
12.7642	12.7476	0.000952516	0.00267773
12.7647	12.7471	-0.000226857	0.00369293
12.7651	12.7466	-0.000950083	0.00416558
12.7656	12.7462	-0.000615178	0.00341784
12.7661	12.7457	-0.000643054	0.00214732
12.7666	12.7452	0.000791199	0.00283728
12.767	12.7447	-7.93438e-05	0.0037049
12.7675	12.7442	-0.000925542	0.00417803
12.768	12.7438	-0.000498073	0.00339122
12.7684	12.7433	-0.000456393	0.00215478
12.7689	12.7428	0.000651622	0.00269298
12.7694	12.7424	-0.00013276	0.00382199
12.7699	12.7419	-0.00103471	0.00415329
12.7703	12.7414	-0.000624381	0.00318447
12.7708	12.741	-0.000382503	0.00214839
12.7713	12.7405	0.000666425	0.00278467
12.7717	12.74	-0.000107416	0.00373915
12.7722	12.7395	-0.00110833	0.00402938
12.7727	12.7391	-0.000633048	0.00330591
12.7732	12.7386	-0.000433386	0.002166
12.7736	12.7381	0.000619145	0.00282719
12.7741	12.7377	-2.45905e-05	0.00369792
12.7746	12.7372	-0.00123564	0.00390295
12.7751	12.7367	-0.000450258	0.00310851
12.7755	12.7362	-0.000422382	0.00214543
12.776	12.7358	0.000615542	0.00273813
12.7765	12.7353	3.82956e-05	0.00389624
12.7769	12.7348	-0.00121417	0.0040334
12.7774	12.7343	-0.000442054	0.00317374
12.7779	12.7338	-0.000371766	0.00217829
12.7784	12.7334	0.000607142	0.00283122
12.7788	12.7329	7.10405e-05	0.00397736
12.7793	12.7324	-0.00136808	0.00390918
12.7798	12.732	-0.000459728	0.00313481
12.7802	12.7315	-8.08064e-05	0.00222065
12.7807	12.731	0.000497707	0.00292463
12.7812	12.7305	0.000102716	0.0039336
12.7817	12.73	-0.00140643	0.00397505
12.7821	12.7296	-0.000267735	0.00307721
12.7826	12.7291	-0.000160832	0.00215682
12.7831	12.7287	0.0004831	0.00299265
12.7836	12.7282	-1.61902e-05	0.00391819
12.784	12.7277	-0.00145524	0.00394638
12.7845	12.7272	-0.000437987	0.00316611
12.785	12.7268	-0.000139626	0.00220427
12.7854	12.7263	0.000470098	0.00288259
12.7859	12.7258	4.77659e-05	0.00404446
12.7864	12.7253	-0.00138089	0.00390327
12.7869	12.7249	-0.000407311	0.0030895
12.7873	12.7244	-0.000134026	0.00219198
12.7878	12.7239	0.000370668	0.00296183
12.7883	12.7234	0.000101449	0.00400678
12.7887	12.723	-0.00148438	0.00387852
12.7892	12.7225	-0.000350025	0.00305992
12.7897	12.722	2.42238e-05	0.00207914
12.7902	12.7216	0.000382939	0.00289554
12.7906	12.7211	5.64338e-05	0.00413944
12.7911	12.7206	-0.00153066	0.00370989
12.7916	12.7202	-0.000368966	0.00300124
12.7921	12.7197	1.6091e-05	0.00213814
12.7925	12.7192	0.00031365	0.00287325
12.793	12.7188	0.000117055	0.00418475
12.7935	12.7183	-0.00152146	0.00386993
12.7939	12.7178	-0.000363633	0.00303378
12.7944	12.7174	0.000114718	0.0023212
12.7949	12.7169	0.000274769	0.00295872
12.7954	12.7164	0.000198614	0.00419065
12.7958	12.7159	-0.00152453	0.00376815
12.7963	12.7155	-0.000327286	0.00299609
12.7968	12.715	0.000176873	0.00244731
12.7972	12.7145	0.00024816	0.00287358
12.7977	12.714	0.000142327	0.0042766
12.7982	12.7135	-0.00148592	0.00380846
12.7987	12.7131	-0.000391973	0.00292479
12.7991	12.7126	0.000191213	0.00225442
12.7996	12.7122	0.000133659	0.00302632
12.8001	12.7117	0.000117786	0.00424482
12.8006	12.7112	-0.00161736	0.00378462
12.801	12.7107	-0.000311948	0.00280663
12.8015	12.7103	0.000344058	0.00222017
12.802	12.7098	0.000119855	0.00299313
12.8024	12.7093	0.000146661	0.00423236
12.8029	12.7089	-0.00150766	0.0036772
12.8034	12.7084	-0.000323487	0.0028004
12.8039	12.7079	0.000326188	0.00226097
12.8043	12.7074	3.06265e-05	0.00310072
12.8048	12.707	0.000230824	0.00430586
12.8053	12.7065	-0.00142483	0.00361229
12.8057	12.706	-0.000294077	0.00279262
12.8062	12.7055	0.000331253	0.00235717
12.8067	12.705	0.00015433	0.00310507
12.8072	12.7045	3.98294e-05	0.00424981
12.8076	12.7041	-0.00146571	0.00362099
12.8081	12.7036	-0.000401978	0.0027691
12.8086	12.7031	0.000382404	0.00228899
12.8091	12.7027	-3.30621e-05	0.00304591
12.8095	12.7022	3.92944e-05	0.00434151
12.81	12.7017	-0.00137422	0.00356543
12.8105	12.7013	-0.000473265	0.00262587
12.8109	12.7008	0.000525048	0.00231063
12.8114	12.7003	9.65803e-05	0.00320455
12.8119	12.6998	-0.000116352	0.0043275
12.8124	12.6994	-0.00136221	0.00364515
12.8128	12.6989	-0.000543553	0.0025812
12.8133	12.6985	0.000480835	0.00232882
12.8138	12.698	-0.000105615	0.00319349
12.8142	12.6975	-0.000100282	0.00432766
12.8147	12.697	-0.00134688	0.00357509
12.8152	12.6966	-0.000443391	0.00254647
12.8157	12.6961	0.00056646	0.00248516
12.8161	12.6956	-0.000122754	0.0032329
12.8166	12.6951	-7.71866e-06	0.0041782
12.8171	12.6947	-0.00118936	0.00361213
12.8176	12.6942	-0.00048607	0.00250041
12.818	12.6937	0.000666425	0.00245075
12.8185	12.6932	-7.21386e-05	0.00319102
12.819	12.6928	-0.000272336	0.00428595
12.8194	12.6923	-0.00127452	0.00359689
12.8199	12.6919	-0.000458926	0.00254212
12.8204	12.6914	0.000794801	0.00247222
12.8209	12.6909	-6.4202e-05	0.00308016
12.8213	12.6904	-0.00030328	0.00421851
12.8218	12.69	-0.00113594	0.00360419
12.8223	12.6895	-0.000536419	0.00255753
12.8227	12.689	0.000788399	0.0026044
12.8232	12.6886	1.09545e-05	0.00339481
12.8237	12.6881	-0.000363098	0.00421384
12.8242	12.6876	-0.00107072	0.00354363
12.8246	12.6871	-0.000573497	0.00247705
12.8251	12.6867	0.000734983	0.00247984
12.8256	12.6862	-8.4944e-05	0.00332304
12.8261	12.6857	-0.000415979	0.00423424
12.8265	12.6852	-0.000959018	0.00356354
12.827	12.6848	-0.000527216	0.00246149
12.8275	12.6843	0.000814206	0.00256408
12.8279	12.6838	-9.20781e-05	0.00336303
12.8284	12.6833	-0.000474799	0.0042562
12.8289	12.6829	-0.000889462	0.00364794
12.8294	12.6824	-0.000625914	0.00225442
12.8298	12.6819	0.000879428	0.00260907
12.8303	12.6815	-8.59429e-05	0.00342595
12.8308	12.681	-0.000445656	0.00417541
12.8312	12.6805	-0.000809436	0.0034639
12.8317	12.68	-0.000555092	0.00233833
12.8322	12.6796	0.000749519	0.00269158
12.8327	12.6791	-0.000106417	0.00339089
12.8331	12.6786	-0.000601373	0.0041564
12.8336	12.6782	-0.000923206	0.00346128
12.8341	12.6777	-0.000607241	0.00236496
12.8346	12.6772	0.000877092	0.00277501
12.835	12.6767	-0.000205312	0.00339728
12.8355	12.6762	-0.000614643	0.00414115
12.836	12.6758	-0.000784699	0.00345628
12.8364	12.6753	-0.000625647	0.00223573
12.8369	12.6748	0.000981391	0.00257202
12.8374	12.6743	-0.000203047	0.00348979
12.8379	12.6739	-0.000677529	0.00421196
12.8383	12.6734	-0.000768826	0.00340678
12.8388	12.6729	-0.000673926	0.00222779
12.8393	12.6724	0.00108036	0.00259334
12.8397	12.672	-0.000167502	0.00345537
12.8402	12.6715	-0.000826379	0.00422286
12.8407	12.671	-0.000855254	0.0033699
12.8412	12.6706	-0.000657589	0.00211962
12.8416	12.6701	0.000915437	0.00271477
12.8421	12.6696	-0.000124823	0.00352183
12.8426	12.6692	-0.000815839	0.00416402
12.8431	12.6687	-0.000812236	0.00339245
12.8435	12.6683	-0.000734815	0.00222607
12.844	12.6678	0.000924373	0.0027968
12.8445	12.6673	-0.000158299	0.00356698
12.8449	12.6668	-0.00078543	0.00413772
12.8454	12.6664	-0.00069647	0.00329378
12.8459	12.6659	-0.000561227	0.00212568
12.8464	12.6654	0.000978858	0.00271617
12.8468	12.6649	-0.00010615	0.0036168
12.8473	12.6644	-0.00100223	0.00402546
12.8478	12.664	-0.00060931	0.00339449
12.8482	12.6635	-0.000615178	0.00215494
12.8487	12.663	0.000814473	0.00273067
12.8492	12.6626	3.64943e-05	0.00378012
12.8497	12.6621	-0.0010007	0.00407126
12.8501	12.6617	-0.00061491	0.00324068
12.8506	12.6612	-0.000574496	0.00214715
12.8511	12.6607	0.000870226	0.00276878
12.8516	12.6602	-6.65383e-05	0.0037507
12.852	12.6598	-0.00108253	0.00393769
12.8525	12.6593	-0.000556091	0.00327321
12.853	12.6588	-0.000413714	0.00211462
12.8534	12.6584	0.000750321	0.00278886
12.8539	12.6579	-6.65383e-05	0.00369744
12.8544	12.6574	-0.0012119	0.00397317
12.8549	12.6569	-0.000490672	0.00321749
12.8553	12.6565	-0.000472266	0.00222451
12.8558	12.656	0.00068023	0.0028558
12.8563	12.6555	-1.10538e-05	0.00387943
12.8567	12.655	-0.00112854	0.00406299
12.8572	12.6545	-0.000386105	0.00327928
12.8577	12.6541	-0.000430051	0.00219123
12.8582	12.6536	0.000614276	0.00282859
12.8586	12.6531	2.44913e-05	0.00383289
12.8591	12.6527	-0.00118682	0.0040566
12.8596	12.6522	-0.000495006	0.00319472
12.8601	12.6517	-0.000441857	0.00225941
12.8605	12.6513	0.000649286	0.00285785
12.861	12.6508	6.28365e-05	0.00393237
12.8615	12.6503	-0.00122437	0.00397736
12.8619	12.6498	-0.000432851	0.00332132
12.8624	12.6493	-0.00034496	0.00227589
12.8629	12.6489	0.00050971	0.00278902
12.8634	12.6484	-4.65988e-05	0.00388787
12.8638	12.6479	-0.00125865	0.00404258
12.8643	12.6475	-0.00037437	0.00317685
12.8648	12.647	-0.000222987	0.00220739
12.8652	12.6465	0.000535053	0.00287234
12.8657	12.646	2.88252e-05	0.00391712
12.8662	12.6455	-0.0013162	0.00385984
12.8667	12.6451	-0.00039711	0.00303936
12.8671	12.6446	-0.000281539	0.00219853
12.8676	12.6441	0.00055699	0.00282376
12.8681	12.6436	1.70898e-05	0.00396227
12.8686	12.6432	-0.00136501	0.00387992
12.869	12.6427	-0.000365363	0.00303689
12.8695	12.6423	-0.000165237	0.00218017
12.87	12.6418	0.000499775	0.00288259
12.8704	12.6413	7.69083e-05	0.00403947
12.8709	12.6408	-0.00146724	0.00389484
12.8714	12.6404	-0.000377901	0.00300076
12.8719	12.6399	-5.7068e-05	0.00217051
12.8723	12.6394	0.000503307	0.00299829
12.8728	12.639	5.58988e-05	0.00418877
12.8733	12.6385	-0.00141816	0.00390934
12.8737	12.638	-0.000345424	0.00284695
12.8742	12.6376	3.82956e-05	0.00221673
12.8747	12.6371	0.00048137	0.00291218
12.8752	12.6366	8.2776e-05	0.00423843
12.8756	12.6361	-0.0014343	0.00378167
12.8761	12.6357	-0.000468663	0.00293274
12.8766	12.6352	1.21669e-06	0.00224803
12.8771	12.6347	0.000216485	0.00305042
12.8775	12.6342	0.00012599	0.00414083
12.878	12.6338	-0.00142023	0.00368858
12.8785	12.6333	-0.000359496	0.00303624
12.8789	12.6328	0.000122388	0.00218919
12.8794	12.6324	0.000225688	0.00302615
12.8799	12.6319	0.000220819	0.00423113
12.8804	12.6314	-0.00148852	0.00375521
12.8808	12.631	-0.000411645	0.00281425
12.8813	12.6305	0.000256899	0.00226424
12.8818	12.63	0.000174073	0.00303689
12.8822	12.6295	0.000132125	0.00428218
12.8827	12.6291	-0.00139749	0.00372391
12.8832	12.6286	-0.000418583	0.00287465
12.8837	12.6281	0.000244093	0.00221705
12.8841	12.6277	0.00018481	0.0028848
12.8846	12.6272	0.000133124	0.00422785
12.8851	12.6267	-0.00146237	0.00361713
12.8856	12.6262	-0.000293007	0.0028127
12.886	12.6257	0.00021315	0.00223869
12.8865	12.6253	0.000107584	0.00293258
12.887	12.6248	0.000111455	0.00427489
12.8874	12.6243	-0.00144397	0.00375086
12.8879	12.6238	-0.000392241	0.00284104
12.8884	12.6234	0.000273236	0.00228556
12.8889	12.6229	0.000140526	0.00308499
12.8893	12.6224	0.000107049	0.00422785
12.8898	12.622	-0.00140716	0.00361852
12.8903	12.6215	-0.000419047	0.00271633
12.8907	12.621	0.000444291	0.00247018
12.8912	12.6205	5.72363e-05	0.00320144
12.8917	12.62	1.93549e-05	0.00433839
12.8922	12.6196	-0.00142357	0.00372734
12.8926	12.6191	-0.000460994	0.00254073
12.8931	12.6187	0.000525583	0.00235111
12.8936	12.6182	-8.4409e-05	0.00312064
12.8941	12.6177	8.09747e-05	0.00420402
12.8945	12.6172	-0.00132	0.00367597
12.895	12.6168	-0.000393239	0.00271273
12.8955	12.6163	0.000527384	0.00238799
12.8959	12.6158	3.70293e-05	0.00326527
12.8964	12.6153	-7.21386e-05	0.0042358
12.8969	12.6148	-0.00132874	0.00362008
12.8974	12.6144	-0.000450793	0.00263693
12.8978	12.6139	0.000523781	0.00236389
12.8983	12.6134	4.28431e-06	0.00332115
12.8988	12.613	-0.000120489	0.00417648
