# 1304     AichiSR QXAFS
# Start     : 8.9544
# End       : 9.0544
# Dir       : Forward
# Points    : 300
# ScanTime  : 1.01549
# Date      : 13.04.23 22:35
# Ring Cur. : 1[mA]
12.7557	12.7558	-0.000525682	0.00308451
12.7562	12.7554	-0.000201781	0.00213126
12.7566	12.7549	0.000575199	0.00278795
12.7571	12.7544	2.08887e-05	0.00394917
12.7576	12.7539	-0.00136294	0.00382838
12.7581	12.7535	-0.000380434	0.00313105
12.7585	12.753	-0.000147028	0.00202244
12.759	12.7525	0.00045476	0.00286719
12.7595	12.7521	1.83561e-05	0.00390139
12.7599	12.7516	-0.00136475	0.00396474
12.7604	12.7511	-0.000339556	0.00297757
12.7609	12.7507	-6.34707e-05	0.0021887
12.7614	12.7502	0.000382404	0.00286842
12.7618	12.7497	0.000147731	0.00405257
12.7623	12.7493	-0.0014315	0.00383584
12.7628	12.7488	-0.000414713	0.00299297
12.7632	12.7483	-0.000114818	0.00219821
12.7637	12.7479	0.000344593	0.0027895
12.7642	12.7474	0.000161535	0.00408446
12.7647	12.7469	-0.00145191	0.0038215
12.7651	12.7464	-0.000357962	0.0030305
12.7656	12.746	-2.33242e-05	0.00212396
12.7661	12.7455	0.000407479	0.0028499
12.7666	12.745	0.000288306	0.00420869
12.767	12.7445	-0.00150459	0.003635
12.7675	12.744	-0.000359299	0.00276599
12.768	12.7436	-9.59482e-05	0.00218903
12.7684	12.7431	0.00036653	0.0028163
12.7689	12.7426	0.000133392	0.00406208
12.7694	12.7422	-0.00148645	0.00363549
12.7699	12.7417	-0.00040658	0.00287932
12.7703	12.7412	0.000167135	0.00216895
12.7708	12.7408	0.000280173	0.00284507
12.7713	12.7403	0.000174804	0.00409896
12.7717	12.7398	-0.00142637	0.00368187
12.7722	12.7394	-0.000477599	0.00287234
12.7727	12.7389	0.000268099	0.00217018
12.7732	12.7384	0.000313917	0.00287841
12.7736	12.738	0.000224956	0.00419065
12.7741	12.7375	-0.00154807	0.00354798
12.7746	12.737	-0.00038277	0.0028149
12.7751	12.7365	0.00019988	0.00226859
12.7755	12.736	0.000205481	0.00292168
12.776	12.7356	0.000301379	0.00427784
12.7765	12.7351	-0.00150152	0.00361787
12.7769	12.7346	-0.000259263	0.00282327
12.7774	12.7341	0.00019041	0.00221829
12.7779	12.7336	0.000126989	0.00296806
12.7784	12.7332	0.000156131	0.00422228
12.7788	12.7327	-0.00149359	0.00358878
12.7793	12.7322	-0.000307881	0.00280024
12.7798	12.7318	0.000338387	0.00221394
12.7802	12.7313	0.000172468	0.00299936
12.7807	12.7308	0.000201147	0.00420933
12.7812	12.7303	-0.00141536	0.00367285
12.7817	12.7299	-0.000277205	0.00272133
12.7821	12.7294	0.000361662	0.00228244
12.7826	12.7289	9.73116e-05	0.00298658
12.7831	12.7285	0.000207282	0.00425137
12.7836	12.728	-0.00141536	0.00366131
12.784	12.7275	-0.000368698	0.0027814
12.7845	12.727	0.000351192	0.00238659
12.785	12.7266	0.000123921	0.0030836
12.7854	12.7261	1.16858e-05	0.00419548
12.7859	12.7256	-0.00133994	0.00366056
12.7864	12.7251	-0.000465328	0.00260874
12.7869	12.7247	0.000529917	0.0022432
12.7873	12.7242	7.69083e-05	0.00305992
12.7878	12.7237	9.45115e-05	0.00425416
12.7883	12.7232	-0.00123311	0.00369916
12.7887	12.7228	-0.000423452	0.00257949
12.7892	12.7223	0.000564659	0.00236684
12.7897	12.7219	-2.4858e-05	0.00303812
12.7902	12.7214	5.33662e-05	0.00427177
12.7906	12.7209	-0.00130719	0.00369916
12.7911	12.7204	-0.000463795	0.00267553
12.7916	12.72	0.000601007	0.0023371
12.7921	12.7195	-6.9071e-05	0.00310163
12.7925	12.719	-2.81932e-05	0.00426506
12.793	12.7186	-0.00113134	0.00372079
12.7935	12.7181	-0.000450525	0.00265266
12.7939	12.7176	0.000678232	0.00232464
12.7944	12.7172	9.37802e-05	0.00306099
12.7949	12.7167	-0.000158299	0.00434151
12.7954	12.7162	-0.00113107	0.00363098
12.7958	12.7157	-0.000351095	0.00250164
12.7963	12.7153	0.000716774	0.00240028
12.7968	12.7148	3.34267e-05	0.00323692
12.7972	12.7143	-0.000103082	0.00423532
12.7977	12.7138	-0.00116102	0.00349397
12.7982	12.7134	-0.000516212	0.00238659
12.7987	12.7129	0.000797334	0.00234676
12.7991	12.7124	-0.000157033	0.00317964
12.7996	12.712	-0.00024166	0.00418909
12.8001	12.7115	-0.00108813	0.00343186
12.8006	12.711	-0.000466131	0.00242707
12.801	12.7105	0.000668494	0.002544
12.8015	12.7101	1.83561e-05	0.00324487
12.802	12.7096	-0.000272336	0.00426055
12.8024	12.7091	-0.00109426	0.00350299
12.8029	12.7087	-0.000622579	0.00241569
12.8034	12.7082	0.000834145	0.00244592
12.8039	12.7077	-7.781e-05	0.00326871
12.8043	12.7072	-0.000401711	0.00426817
12.8048	12.7068	-0.00105485	0.00350487
12.8053	12.7063	-0.000617978	0.00236275
12.8057	12.7058	0.000787596	0.00257358
12.8062	12.7053	-0.000172906	0.00327633
12.8067	12.7048	-0.000440787	0.0041972
12.8072	12.7044	-0.000930143	0.0035469
12.8076	12.7039	-0.000465596	0.00235562
12.8081	12.7034	0.000794801	0.00260112
12.8086	12.7029	-0.000107149	0.00328911
12.8091	12.7025	-0.000490939	0.00415377
12.8095	12.702	-0.00093808	0.00359034
12.81	12.7015	-0.00061771	0.00225769
12.8105	12.7011	0.000966588	0.00250787
12.8109	12.7006	-5.84616e-07	0.00332271
12.8114	12.7001	-0.000561494	0.00409691
12.8119	12.6996	-0.000817908	0.00347185
12.8124	12.6992	-0.000577564	0.00232448
12.8128	12.6987	0.000943848	0.0026475
12.8133	12.6983	-0.000149899	0.00343277
12.8138	12.6978	-0.000524148	0.0041746
12.8142	12.6973	-0.000868523	0.00337409
12.8147	12.6968	-0.000576833	0.00215617
12.8152	12.6964	0.000989595	0.00261669
12.8157	12.6959	-0.000159833	0.00345365
12.8161	12.6954	-0.00054209	0.00418614
12.8166	12.6949	-0.00073815	0.00353166
12.8171	12.6945	-0.000607241	0.00225721
12.8176	12.694	0.000937178	0.0026139
12.818	12.6935	-6.9071e-05	0.00347373
12.8185	12.693	-0.000682933	0.00414862
12.819	12.6926	-0.000742751	0.00361197
12.8194	12.6921	-0.000619512	0.00214994
12.8199	12.6917	0.00102714	0.00262743
12.8204	12.6912	-0.000165237	0.00352371
12.8209	12.6907	-0.000829643	0.00423204
12.8213	12.6902	-0.000781828	0.00342096
12.8218	12.6898	-0.000536954	0.00212273
12.8223	12.6893	0.000957653	0.00270731
12.8227	12.6889	-0.000214586	0.00361369
12.8232	12.6884	-0.000813039	0.00405692
12.8237	12.6879	-0.00066986	0.00337581
12.8242	12.6874	-0.000582165	0.00207881
12.8246	12.687	0.000910568	0.00267167
12.8251	12.6865	-8.70128e-05	0.00356977
12.8256	12.686	-0.000768558	0.00411125
12.8261	12.6855	-0.000619779	0.00332459
12.8265	12.685	-0.000756021	0.00212519
12.827	12.6846	0.000868424	0.00267381
12.8275	12.6841	-4.5065e-05	0.00355125
12.8279	12.6836	-0.000765758	0.0040661
12.8284	12.6831	-0.000557428	0.00329174
12.8289	12.6827	-0.000671394	0.00211397
12.8294	12.6822	0.000888631	0.00265078
12.8298	12.6817	-0.00017444	0.00369261
12.8303	12.6813	-0.00102451	0.00416
12.8308	12.6808	-0.000555359	0.00326215
12.8312	12.6803	-0.000561227	0.00213003
12.8317	12.6798	0.000962254	0.00273534
12.8322	12.6794	-6.5272e-05	0.0035628
12.8327	12.6789	-0.00100603	0.00397924
12.8331	12.6784	-0.000555627	0.00334811
12.8336	12.678	-0.000530551	0.00215494
12.8341	12.6775	0.000817809	0.00279606
12.8346	12.677	-8.80117e-05	0.0036663
12.835	12.6765	-0.0010219	0.00405741
12.8355	12.6761	-0.00050041	0.00323536
12.836	12.6756	-0.000636384	0.00204719
12.8364	12.6751	0.000846416	0.00278795
12.8369	12.6746	-9.41469e-05	0.00371628
12.8374	12.6741	-0.0011206	0.0039204
12.8379	12.6737	-0.000490939	0.00316391
12.8383	12.6732	-0.000495006	0.00214109
12.8388	12.6727	0.00083188	0.00283605
12.8393	12.6723	-5.96006e-05	0.00375692
12.8397	12.6718	-0.00115795	0.0039204
12.8402	12.6713	-0.000513679	0.00324954
12.8407	12.6709	-0.000484002	0.00211666
12.8412	12.6704	0.000677162	0.00279197
12.8416	12.6699	-2.23254e-05	0.00388394
12.8421	12.6694	-0.00127118	0.0039431
12.8426	12.669	-0.000386105	0.00319725
12.8431	12.6685	-0.000369233	0.00213298
12.8435	12.6681	0.000674362	0.00287546
12.844	12.6676	-5.98681e-05	0.00382215
12.8445	12.6671	-0.0012009	0.00394327
12.8449	12.6666	-0.000415515	0.00314711
12.8454	12.6662	-0.000356963	0.00207103
12.8459	12.6657	0.000609675	0.00272632
12.8464	12.6652	-1.43889e-05	0.00381281
12.8468	12.6647	-0.00134707	0.00390343
12.8473	12.6642	-0.000496272	0.00306508
12.8478	12.6638	-0.000190777	0.00203366
12.8482	12.6633	0.000562127	0.00282171
12.8487	12.6628	-1.99891e-05	0.00392115
12.8492	12.6624	-0.00129473	0.00389361
12.8497	12.6619	-0.00035056	0.00292463
12.8501	12.6615	-0.000243729	0.00207242
12.8506	12.661	0.000436354	0.0028222
12.8511	12.6605	0.000186611	0.0039154
12.8516	12.66	-0.0013346	0.00371596
12.852	12.6596	-0.000445924	0.00299265
12.8525	12.6591	-0.000168037	0.00212503
12.853	12.6586	0.000466763	0.00279557
12.8534	12.6582	8.37748e-05	0.00404914
12.8539	12.6577	-0.00126171	0.00383428
12.8544	12.6572	-0.00039991	0.0030196
12.8549	12.6567	-0.000138092	0.00217518
12.8553	12.6563	0.000347857	0.00288152
12.8558	12.6558	0.000174804	0.00400366
12.8563	12.6553	-0.00141636	0.00384534
12.8567	12.6548	-0.000366166	0.00315784
12.8572	12.6543	-5.34654e-05	0.00214683
12.8577	12.6539	0.000371667	0.0028848
12.8582	12.6534	5.08335e-05	0.00410051
12.8586	12.6529	-0.00157415	0.00370866
12.8591	12.6525	-0.000332422	0.00291685
12.8596	12.652	5.26348e-05	0.00210093
12.8601	12.6515	0.000253029	0.00300124
12.8605	12.6511	0.000106318	0.0041455
12.861	12.6506	-0.00154167	0.00368203
12.8615	12.6501	-0.00038277	0.0029343
12.8619	12.6496	0.000104784	0.00215011
12.8624	12.6492	0.000342792	0.00293118
12.8629	12.6487	0.000241828	0.00409166
12.8634	12.6482	-0.00140796	0.00375692
12.8638	12.6477	-0.000449794	0.0028921
12.8643	12.6473	0.000172736	0.00218731
12.8648	12.6468	0.000255829	0.00296822
12.8652	12.6463	0.000100183	0.00419188
12.8657	12.6458	-0.00158895	0.00375193
12.8662	12.6453	-0.000385107	0.00281474
12.8667	12.6449	0.000266298	0.00218656
12.8671	12.6444	0.000276036	0.0029883
12.8676	12.6439	6.69029e-05	0.00425121
12.8681	12.6434	-0.00141896	0.00374694
12.8686	12.643	-0.000329818	0.00271649
12.869	12.6425	0.000166868	0.00214855
12.8695	12.6421	0.000157469	0.00292045
12.87	12.6416	0.000179406	0.00412231
12.8704	12.6411	-0.00159455	0.00374882
12.8709	12.6406	-0.000494007	0.00278188
12.8714	12.6402	0.000270168	0.00222532
12.8719	12.6397	0.000180208	0.00295094
12.8723	12.6392	0.000146393	0.00422318
12.8728	12.6388	-0.00146011	0.00371596
12.8733	12.6383	-0.000292543	0.00266512
12.8737	12.6379	0.000369134	0.00224368
12.8742	12.6374	8.2241e-05	0.00293274
12.8747	12.6369	8.3311e-05	0.00434478
12.8752	12.6364	-0.00148852	0.00364171
12.8756	12.6359	-0.00035056	0.00276615
12.8761	12.6355	0.000365799	0.0022513
12.8766	12.635	0.000190143	0.00296774
12.8771	12.6345	-4.65104e-06	0.00425169
12.8775	12.634	-0.00144144	0.00358411
12.878	12.6336	-0.000269536	0.00278033
12.8785	12.6331	0.000402878	0.00232325
12.8789	12.6326	4.77659e-05	0.00298846
12.8794	12.6322	0.00010045	0.00431193
12.8799	12.6317	-0.00139822	0.00367736
12.8804	12.6312	-0.000395041	0.00263333
12.8808	12.6308	0.000540653	0.00232743
12.8813	12.6303	3.74931e-05	0.00304033
12.8818	12.6298	6.59041e-05	0.00423671
12.8822	12.6293	-0.00120496	0.00372841
12.8827	12.6289	-0.000484537	0.00269593
12.8832	12.6284	0.000570866	0.00232587
12.8837	12.6279	5.95014e-05	0.00317357
12.8841	12.6275	2.39563e-05	0.00432111
12.8846	12.627	-0.00129572	0.00369728
12.8851	12.6265	-0.000381504	0.0026416
12.8856	12.626	0.000585134	0.00240372
12.886	12.6256	0.000127256	0.00309573
12.8865	12.6251	-0.000121755	0.00426383
12.887	12.6246	-0.00121443	0.00363205
12.8874	12.6241	-0.000473532	0.00255908
12.8879	12.6236	0.000715507	0.00243362
12.8884	12.6232	3.4693e-05	0.00318103
12.8889	12.6227	7.35192e-06	0.00421261
12.8893	12.6222	-0.00116202	0.00355265
12.8898	12.6218	-0.000509612	0.00253933
12.8903	12.6213	0.000779196	0.00241274
12.8907	12.6208	-4.78652e-05	0.00322602
12.8912	12.6203	-0.000128889	0.00425228
12.8917	12.6199	-0.00104438	0.00355625
12.8922	12.6194	-0.000597771	0.0025418
12.8926	12.6189	0.000744186	0.00253589
12.8931	12.6185	-5.06653e-05	0.00315038
12.8936	12.618	-0.000281271	0.00424449
12.8941	12.6175	-0.000968488	0.00356043
12.8945	12.617	-0.000506741	0.00233505
12.895	12.6166	0.000744186	0.00231841
12.8955	12.6161	-6.01356e-05	0.00316439
12.8959	12.6156	-0.000271534	0.00424015
12.8964	12.6151	-0.00110626	0.00355313
12.8969	12.6146	-0.000526217	0.00242396
12.8974	12.6142	0.000819806	0.00249198
12.8978	12.6137	5.1101e-05	0.00327772
12.8983	12.6132	-0.00029941	0.00412419
12.8988	12.6128	-0.00104725	0.00341752
