# 1304     AichiSR QXAFS
# Start     : 8.9544
# End       : 9.0544
# Dir       : Forward
# Points    : 300
# ScanTime  : 1.01549
# Date      : 13.04.23 22:49
# Ring Cur. : 0.9[mA]
12.7557	12.756	-3.6326e-05	0.00218779
12.7562	12.7555	0.000270703	0.00286236
12.7566	12.755	0.000189411	0.00414132
12.7571	12.7545	-0.00136961	0.00376766
12.7576	12.7541	-0.000320152	0.00285678
12.7581	12.7536	1.86236e-05	0.00219853
12.7585	12.7531	0.000354527	0.0028753
12.759	12.7527	5.92339e-05	0.00404914
12.7595	12.7522	-0.00132767	0.00383166
12.7599	12.7518	-0.000403245	0.00296683
12.7604	12.7513	3.21603e-05	0.002225
12.7609	12.7508	0.000305981	0.002903
12.7614	12.7503	0.000185541	0.00417852
12.7618	12.7499	-0.00146904	0.00369358
12.7623	12.7494	-0.000359228	0.00301649
12.7628	12.7489	0.00028144	0.00216927
12.7632	12.7485	0.00034866	0.00299174
12.7637	12.748	0.000172004	0.00419205
12.7642	12.7475	-0.00156188	0.00374071
12.7647	12.7471	-0.000264132	0.00283761
12.7651	12.7466	9.75791e-05	0.00228835
12.7656	12.7461	0.000261233	0.00303066
12.7661	12.7456	0.000253831	0.00417353
12.7666	12.7452	-0.00146418	0.00373931
12.767	12.7447	-0.000162437	0.00297773
12.7675	12.7442	0.000144396	0.00222188
12.768	12.7437	0.000333589	0.00303812
12.7684	12.7433	0.000136727	0.00420729
12.7689	12.7428	-0.00144144	0.00369325
12.7694	12.7423	-0.000293809	0.00278016
12.7699	12.7419	0.000258165	0.00236184
12.7703	12.7414	0.000199613	0.00305976
12.7708	12.7409	0.000165067	0.00432422
12.7713	12.7404	-0.00143944	0.00359034
12.7717	12.74	-0.000256196	0.00283326
12.7722	12.7395	0.000351727	0.00224615
12.7727	12.739	0.000245092	0.00307737
12.7732	12.7386	0.000188876	0.00435053
12.7736	12.7381	-0.00130339	0.00366818
12.7741	12.7376	-0.000280736	0.002844
12.7746	12.7372	0.000347393	0.00241462
12.7751	12.7367	0.000157933	0.00308123
12.7755	12.7362	5.81811e-06	0.00430242
12.776	12.7357	-0.00143296	0.00379101
12.7765	12.7352	-0.000393774	0.00270452
12.7769	12.7347	0.000401541	0.00222172
12.7774	12.7343	0.000169204	0.00307533
12.7779	12.7338	6.2569e-05	0.00439068
12.7784	12.7333	-0.00135401	0.00366834
12.7788	12.7328	-0.000334223	0.002726
12.7793	12.7324	0.00053425	0.00243781
12.7798	12.7319	0.000101182	0.00300698
12.7802	12.7315	9.63128e-05	0.00436486
12.7807	12.731	-0.00127272	0.00371752
12.7812	12.7305	-0.00044439	0.00273625
12.7817	12.73	0.0005836	0.00237102
12.7821	12.7295	0.000121121	0.00317948
12.7826	12.7291	0.000141061	0.00429448
12.7831	12.7286	-0.00121363	0.00367736
12.7836	12.7281	-0.000326751	0.00261529
12.784	12.7277	0.00061021	0.0023648
12.7845	12.7272	1.5556e-05	0.00314571
12.785	12.7267	-2.30567e-05	0.00427784
12.7854	12.7263	-0.00129139	0.00364966
12.7859	12.7258	-0.000333688	0.00272862
12.7864	12.7253	0.000617879	0.00238004
12.7869	12.7248	0.000195814	0.00322742
12.7873	12.7243	-8.70128e-05	0.00419532
12.7878	12.7239	-0.0011104	0.00360091
12.7883	12.7234	-0.000433386	0.00262152
12.7887	12.7229	0.000527116	0.00246787
12.7892	12.7225	5.87701e-05	0.00330247
12.7897	12.722	-8.80117e-05	0.00434307
12.7902	12.7216	-0.0011272	0.00345177
12.7906	12.7211	-0.000645854	0.00247738
12.7911	12.7206	0.000729312	0.00259334
12.7916	12.7201	-2.33242e-05	0.00329174
12.7921	12.7197	-0.000293274	0.00423999
12.7925	12.7192	-0.00103498	0.00363393
12.793	12.7187	-0.00051441	0.00254572
12.7935	12.7183	0.000743116	0.00254056
12.7939	12.7178	1.47535e-05	0.00325748
12.7944	12.7173	-0.000227588	0.00426538
12.7949	12.7168	-0.00115388	0.00362147
12.7954	12.7164	-0.000528018	0.00256064
12.7958	12.7159	0.000724514	0.00239094
12.7963	12.7154	-6.11344e-05	0.0032978
12.7968	12.7149	-0.000228587	0.00430259
12.7972	12.7145	-0.000977424	0.00359796
12.7977	12.714	-0.000587837	0.00236308
12.7982	12.7135	0.00091237	0.00245665
12.7987	12.713	8.76449e-05	0.0033087
12.7991	12.7126	-0.000317084	0.00418008
12.7996	12.7121	-0.00102831	0.00348463
12.8001	12.7117	-0.000445656	0.00247034
12.8006	12.7112	0.000780997	0.00253901
12.801	12.7107	-7.36724e-05	0.00328674
12.8015	12.7102	-0.000352629	0.00423892
12.802	12.7097	-0.000831445	0.0035796
12.8024	12.7093	-0.00053542	0.00249697
12.8029	12.7088	0.000957385	0.00257841
12.8034	12.7084	-6.71985e-06	0.00337393
12.8039	12.7079	-0.000451792	0.00419844
12.8043	12.7074	-0.000962353	0.003517
12.8048	12.7069	-0.000557161	0.00238815
12.8053	12.7064	0.000931774	0.00249402
12.8057	12.706	-0.000106685	0.00343293
12.8062	12.7055	-0.000459461	0.00420139
12.8067	12.705	-0.000885395	0.00343685
12.8072	12.7045	-0.000575299	0.00223294
12.8076	12.704	0.000965589	0.00255957
12.8081	12.7036	-0.000164702	0.00343014
12.8086	12.7031	-0.000431852	0.00422056
12.8091	12.7026	-0.000954684	0.00353708
12.8095	12.7022	-0.000606439	0.00231669
12.81	12.7017	0.000969388	0.00263226
12.8105	12.7012	-0.000163168	0.00339932
12.8109	12.7007	-0.000598306	0.00418163
12.8114	12.7003	-0.000887732	0.00340399
12.8119	12.6998	-0.000693134	0.00224663
12.8124	12.6993	0.00095405	0.00263677
12.8128	12.6989	-7.54737e-05	0.00356854
12.8133	12.6984	-0.000640717	0.00420294
12.8138	12.698	-0.000641984	0.0034675
12.8142	12.6975	-0.00064712	0.00218575
12.8147	12.697	0.00103634	0.00271789
12.8152	12.6965	-8.82792e-05	0.00345505
12.8157	12.6961	-0.000739684	0.00415452
12.8161	12.6956	-0.000773427	0.00344211
12.8166	12.6951	-0.000714608	0.00222205
12.8171	12.6946	0.000922108	0.00268519
12.8176	12.6941	-0.00010895	0.00358223
12.818	12.6937	-0.00072101	0.00431037
12.8185	12.6932	-0.000737882	0.00349971
12.819	12.6927	-0.000538487	0.00225442
12.8194	12.6923	0.00109263	0.00261653
12.8199	12.6918	-0.00021225	0.00360435
12.8204	12.6914	-0.000789568	0.00408027
12.8209	12.6909	-0.000630516	0.00342112
12.8213	12.6904	-0.000642786	0.00211757
12.8218	12.6899	0.000934378	0.0026992
12.8223	12.6895	-0.000149899	0.00368343
12.8227	12.689	-0.00084145	0.0041514
12.8232	12.6885	-0.000516212	0.00335589
12.8237	12.6881	-0.000556626	0.00224524
12.8242	12.6876	0.000991129	0.00277377
12.8246	12.6871	-0.000160636	0.00358099
12.8251	12.6866	-0.000800501	0.00407297
12.8256	12.6862	-0.000516212	0.00349397
12.8261	12.6857	-0.000658659	0.00212863
12.8265	12.6852	0.000896033	0.00264209
12.827	12.6847	-0.000169571	0.0036758
12.8275	12.6842	-0.000971289	0.00399464
12.8279	12.6838	-0.00057603	0.00335975
12.8284	12.6833	-0.000488603	0.00209561
12.8289	12.6828	0.000995195	0.00277361
12.8294	12.6824	1.80886e-05	0.00380503
12.8298	12.6819	-0.000954417	0.00402423
12.8303	12.6814	-0.00051161	0.00331337
12.8308	12.6809	-0.000463795	0.00203194
12.8312	12.6805	0.000826744	0.00273673
12.8317	12.68	-0.000146029	0.00380052
12.8322	12.6795	-0.00093528	0.00400538
12.8327	12.6791	-0.000477599	0.00331665
12.8331	12.6786	-0.000587302	0.00224089
12.8336	12.6781	0.000782531	0.00271665
12.8341	12.6777	5.89664e-05	0.00384223
12.8346	12.6772	-0.00105718	0.00401923
12.835	12.6767	-0.00038944	0.00335245
12.8355	12.6762	-0.000460727	0.00220009
12.836	12.6757	0.000796068	0.00277705
12.8364	12.6752	-2.89245e-05	0.00384067
12.8369	12.6748	-0.0012009	0.00395916
12.8374	12.6743	-0.000443855	0.00322463
12.8379	12.6738	-0.000426983	0.00219263
12.8383	12.6733	0.00076639	0.00281549
12.8388	12.6729	7.41082e-05	0.00374431
12.8393	12.6724	-0.00108199	0.00401972
12.8397	12.672	-0.000496272	0.00324175
12.8402	12.6715	-0.000414713	0.00220025
12.8407	12.671	0.000809872	0.00285506
12.8412	12.6705	4.10957e-05	0.00380191
12.8416	12.6701	-0.0011068	0.0039962
12.8421	12.6696	-0.000371499	0.0032089
12.8426	12.6691	-0.000347225	0.00217346
12.8431	12.6687	0.00074185	0.00291545
12.8435	12.6682	4.56971e-05	0.00384395
12.844	12.6677	-0.00124584	0.00393146
12.8445	12.6673	-0.000414713	0.00324879
12.8449	12.6668	-0.00017724	0.00226188
12.8454	12.6663	0.000608408	0.00287342
12.8459	12.6658	5.81811e-06	0.00385485
12.8464	12.6654	-0.00118322	0.00398391
12.8468	12.6649	-0.000439254	0.00303501
12.8473	12.6644	-0.000148561	0.00223557
12.8478	12.6639	0.00054859	0.00276148
12.8482	12.6635	1.19533e-05	0.00395884
12.8487	12.663	-0.0013264	0.00396195
12.8492	12.6625	-0.000333956	0.00318275
12.8497	12.6621	-0.000187709	0.00215805
12.8501	12.6616	0.000611476	0.00289087
12.8506	12.6611	6.10352e-05	0.00389033
12.8511	12.6607	-0.00130646	0.00391696
12.8516	12.6602	-0.000222987	0.00308204
12.852	12.6597	-0.000123022	0.00228212
12.8525	12.6593	0.00046703	0.00306631
12.853	12.6588	-2.9727e-05	0.00405397
12.8534	12.6583	-0.00140616	0.00384239
12.8539	12.6579	-0.000292543	0.00310475
12.8544	12.6574	-0.000166503	0.00220755
12.8549	12.6569	0.000424351	0.00281458
12.8553	12.6564	0.000144931	0.00406921
12.8558	12.6559	-0.00139335	0.00377405
12.8563	12.6555	-0.000342891	0.00291218
12.8567	12.655	-0.000152164	0.00225318
12.8572	12.6545	0.000467565	0.00288136
12.8577	12.654	0.000268099	0.00418008
12.8582	12.6536	-0.00139262	0.00369261
12.8586	12.6531	-0.000309415	0.0030786
12.8591	12.6526	5.20998e-05	0.0022695
12.8596	12.6522	0.000459094	0.00295749
12.8601	12.6517	0.000163069	0.00419409
12.8605	12.6512	-0.00137035	0.00386575
12.861	12.6507	-0.000252129	0.00304451
12.8615	12.6502	0.000161	0.00218887
12.8619	12.6498	0.000417949	0.00292619
12.8624	12.6493	0.000221621	0.00424965
12.8629	12.6488	-0.00138315	0.00380986
12.8634	12.6484	-0.000263865	0.00303828
12.8638	12.6479	0.000239759	0.00226376
12.8643	12.6474	0.000229023	0.00296962
12.8648	12.6469	0.00011265	0.00427161
12.8652	12.6465	-0.0014343	0.00376922
12.8657	12.646	-0.00021225	0.00297633
12.8662	12.6455	0.000204749	0.00213126
12.8667	12.645	0.000274769	0.00292119
12.8671	12.6445	0.000160733	0.00416885
12.8676	12.6441	-0.00144604	0.00365573
12.8681	12.6436	-0.000331352	0.00291561
12.8686	12.6431	0.000116787	0.00230719
12.869	12.6427	0.000251762	0.0030487
12.8695	12.6422	0.000207014	0.00421261
12.87	12.6418	-0.00140769	0.00372423
12.8704	12.6413	-0.000250328	0.00282515
12.8709	12.6408	0.000314648	0.00223729
12.8714	12.6403	0.000116056	0.00291438
12.8719	12.6399	0.000173538	0.00421245
12.8723	12.6394	-0.00139009	0.00372112
12.8728	12.6389	-0.000408845	0.00275869
12.8733	12.6385	0.000270168	0.00227294
12.8737	12.638	9.55815e-05	0.00299797
12.8742	12.6375	0.000137726	0.00426694
12.8747	12.6371	-0.00135681	0.00371784
12.8752	12.6366	-0.000279738	0.00280352
12.8756	12.6361	0.000294976	0.00236496
12.8761	12.6356	0.000125188	0.00307066
12.8766	12.6351	0.000165602	0.00424047
12.8771	12.6347	-0.00138576	0.00367736
12.8775	12.6342	-0.000319617	0.00284367
12.878	12.6337	0.000381405	0.00226344
12.8785	12.6333	0.000131858	0.00314415
12.8789	12.6328	0.00012492	0.00427284
12.8794	12.6323	-0.00136475	0.0037071
12.8799	12.6319	-0.00037997	0.00277796
12.8804	12.6314	0.000398277	0.00236324
12.8808	12.6309	0.000116252	0.00310367
12.8813	12.6304	2.85577e-05	0.00423687
12.8818	12.63	-0.00138162	0.00353413
12.8822	12.6295	-0.000354894	0.00269158
12.8827	12.629	0.000376268	0.0022935
12.8832	12.6286	6.41028e-05	0.00310212
12.8837	12.6281	9.35127e-05	0.00421212
12.8841	12.6276	-0.0012249	0.00365229
12.8846	12.6271	-0.000455127	0.00268535
12.8851	12.6267	0.000614543	0.00240887
12.8856	12.6262	0.000117322	0.00314662
12.886	12.6257	1.52885e-05	0.00420654
12.8865	12.6252	-0.00125631	0.0035855
12.887	12.6247	-0.000482735	0.0026525
12.8874	12.6243	0.000640886	0.00234284
12.8879	12.6238	1.86236e-05	0.00317545
12.8884	12.6233	1.73573e-05	0.00411388
12.8889	12.6229	-0.00122183	0.00371661
12.8893	12.6224	-0.000335222	0.00269937
12.8898	12.6219	0.000554725	0.00239003
12.8903	12.6215	-7.75425e-05	0.0032642
12.8907	12.621	6.54942e-06	0.00441656
12.8912	12.6205	-0.00126631	0.00371661
12.8917	12.62	-0.000413714	0.00267274
12.8922	12.6195	0.000631148	0.00234971
12.8926	12.6191	-2.07916e-05	0.0033123
12.8931	12.6186	-9.7482e-05	0.00430849
12.8936	12.6181	-0.00113974	0.00356231
12.8941	12.6177	-0.000436721	0.00267478
12.8945	12.6172	0.000743116	0.00244903
12.895	12.6167	5.69688e-05	0.00328567
12.8955	12.6162	-0.000156231	0.00434774
12.8959	12.6158	-0.00105492	0.0035701
12.8964	12.6153	-0.00040831	0.00250287
12.8969	12.6148	0.000708373	0.00245928
12.8974	12.6143	-0.000117422	0.00319209
12.8978	12.6139	-0.000223254	0.00426538
12.8983	12.6134	-0.00107612	0.00356714
12.8988	12.6129	-0.000481469	0.00242535
