# 1304     AichiSR QXAFS
# Start     : 8.9544
# End       : 9.0544
# Dir       : Forward
# Points    : 300
# ScanTime  : 1.01549
# Date      : 13.04.23 22:48
# Ring Cur. : 1[mA]
12.7557	12.756	3.553e-06	0.00442853
12.7562	12.7555	-0.00119729	0.00367736
12.7566	12.755	-0.00033162	0.00250459
12.7571	12.7545	0.000688166	0.00249123
12.7576	12.7541	0.000164603	0.00337081
12.7581	12.7536	-2.71232e-05	0.00437576
12.7585	12.7531	-0.00122337	0.00367425
12.759	12.7527	-0.000397306	0.00263177
12.7595	12.7522	0.000597939	0.00243765
12.7599	12.7517	1.0687e-05	0.00323118
12.7604	12.7513	-6.9071e-05	0.00440641
12.7609	12.7508	-0.00107206	0.00359796
12.7614	12.7503	-0.000389904	0.00257637
12.7618	12.7499	0.00074185	0.00255613
12.7623	12.7494	-2.51255e-05	0.00334263
12.7628	12.7489	-0.000213516	0.00434199
12.7632	12.7485	-0.000989427	0.00365433
12.7637	12.748	-0.000423381	0.0025776
12.7642	12.7475	0.000867622	0.00257122
12.7647	12.7471	-0.000135025	0.00335992
12.7651	12.7466	-0.000241392	0.00428546
12.7656	12.7461	-0.00102777	0.00361508
12.7661	12.7456	-0.000434652	0.00246395
12.7666	12.7451	0.000876093	0.00263489
12.767	12.7447	-6.71985e-06	0.00335745
12.7675	12.7442	-0.000214051	0.00435241
12.768	12.7437	-0.00097589	0.00364278
12.7684	12.7433	-0.000493204	0.00255458
12.7689	12.7428	0.000911103	0.00256859
12.7694	12.7423	1.6091e-05	0.00340335
12.7699	12.7419	-0.000342089	0.00427005
12.7703	12.7414	-0.00084985	0.00358362
12.7708	12.7409	-0.000380434	0.00249246
12.7713	12.7404	0.000977325	0.00260939
12.7717	12.74	-5.48029e-05	0.00357042
12.7722	12.7395	-0.000359228	0.00427612
12.7727	12.739	-0.000949815	0.00356993
12.7732	12.7386	-0.000515748	0.0024224
12.7736	12.7381	0.00102027	0.00264128
12.7741	12.7376	-3.37934e-05	0.00344399
12.7746	12.7371	-0.000364365	0.00437699
12.7751	12.7367	-0.000825309	0.00356076
12.7755	12.7362	-0.000505475	0.00229178
12.776	12.7357	0.000946113	0.00266323
12.7765	12.7352	4.13632e-05	0.00352028
12.7769	12.7347	-0.000551757	0.004273
12.7774	12.7343	-0.000868523	0.00347341
12.7779	12.7338	-0.000520545	0.00237757
12.7784	12.7333	0.00104228	0.00259784
12.7788	12.7328	-8.80117e-05	0.00342998
12.7793	12.7324	-0.000518548	0.00428235
12.7798	12.7319	-0.000852383	0.0036241
12.7802	12.7314	-0.000586035	0.00231014
12.7807	12.731	0.0011031	0.00280196
12.7812	12.7305	-4.11949e-05	0.00352511
12.7817	12.73	-0.000517014	0.0041178
12.7821	12.7295	-0.000810506	0.00353117
12.7826	12.7291	-0.000653255	0.00225925
12.7831	12.7286	0.000998263	0.00271837
12.7836	12.7281	-6.88035e-05	0.00351544
12.784	12.7277	-0.000642786	0.0041936
12.7845	12.7272	-0.000691601	0.00349692
12.785	12.7267	-0.000679063	0.00230735
12.7854	12.7262	0.00102461	0.002603
12.7859	12.7258	5.08681e-06	0.00352462
12.7864	12.7253	-0.000658856	0.00421712
12.7869	12.7248	-0.000663992	0.00346283
12.7873	12.7243	-0.000571964	0.00234193
12.7878	12.7239	0.00110536	0.0027741
12.7883	12.7234	2.47588e-05	0.0035964
12.7887	12.7229	-0.000804104	0.00419205
12.7892	12.7225	-0.000606974	0.00345832
12.7897	12.722	-0.000512145	0.00220427
12.7902	12.7215	0.00104608	0.00276583
12.7906	12.7211	-4.63313e-05	0.00365057
12.7911	12.7206	-0.000828644	0.00421121
12.7916	12.7201	-0.000565026	0.00352307
12.7921	12.7197	-0.000630248	0.0023226
12.7925	12.7192	0.000969121	0.00271305
12.793	12.7187	-6.01356e-05	0.0036685
12.7935	12.7183	-0.000816107	0.00422646
12.7939	12.7178	-0.0004738	0.0034289
12.7944	12.7173	-0.000459728	0.00227777
12.7949	12.7168	0.0011003	0.00289054
12.7954	12.7164	5.67013e-05	0.00383396
12.7958	12.7159	-0.000887464	0.00412419
12.7963	12.7154	-0.000528749	0.0035519
12.7968	12.7149	-0.000552559	0.00223729
12.7972	12.7145	0.00103661	0.00277238
12.7977	12.714	-4.01961e-05	0.00373292
12.7982	12.7135	-0.000918604	0.00417508
12.7987	12.713	-0.00049934	0.00337377
12.7991	12.7126	-0.000447458	0.0021769
12.7996	12.7121	0.00102387	0.00279106
12.8001	12.7116	4.03644e-05	0.00384379
12.8006	12.7112	-0.00105998	0.00423596
12.801	12.7107	-0.000446388	0.00349086
12.8015	12.7102	-0.00051828	0.00215134
12.802	12.7097	0.000863823	0.00292307
12.8024	12.7093	-4.9399e-05	0.00374307
12.8029	12.7088	-0.000951349	0.00414132
12.8034	12.7083	-0.000401443	0.00335917
12.8039	12.7079	-0.000422114	0.0021587
12.8043	12.7074	0.000868157	0.00288931
12.8048	12.7069	-8.21439e-05	0.00379413
12.8053	12.7064	-0.00102037	0.00411436
12.8057	12.706	-0.000485803	0.00339417
12.8062	12.7055	-0.000543553	0.00227573
12.8067	12.705	0.000838479	0.00279041
12.8072	12.7045	9.68823e-06	0.00385452
12.8076	12.704	-0.00115381	0.00406191
12.8081	12.7036	-0.00037437	0.00329968
12.8086	12.7031	-0.000322952	0.00226236
12.8091	12.7026	0.000694301	0.00288587
12.8095	12.7022	4.16307e-05	0.00385313
12.81	12.7017	-0.00113314	0.0040865
12.8105	12.7012	-0.000352094	0.00329657
12.8109	12.7007	-0.000229122	0.00234193
12.8114	12.7003	0.000793999	0.00289956
12.8119	12.6998	9.99154e-05	0.00391991
12.8124	12.6993	-0.00116942	0.00400087
12.8128	12.6989	-0.000444123	0.00323757
12.8133	12.6984	-0.00018671	0.00212224
12.8138	12.6979	0.000715507	0.00294004
12.8142	12.6975	0.000112186	0.00397956
12.8147	12.697	-0.0012139	0.00394203
12.8152	12.6965	-0.000280005	0.00327724
12.8157	12.696	-0.000170837	0.00219853
12.8161	12.6956	0.000592803	0.00290112
12.8166	12.6951	3.06265e-05	0.00399464
12.8171	12.6946	-0.00128192	0.00398546
12.8176	12.6941	-0.000459193	0.00312687
12.818	12.6937	-0.0001639	0.00217018
12.8185	12.6932	0.000695568	0.00291094
12.819	12.6927	0.000208816	0.004155
12.8194	12.6923	-0.00122824	0.00388394
12.8199	12.6918	-0.00034109	0.00318447
12.8204	12.6913	-9.90158e-05	0.0022563
12.8209	12.6909	0.000499775	0.00295921
12.8213	12.6904	0.000134925	0.00408044
12.8218	12.6899	-0.00126271	0.00386107
12.8223	12.6895	-0.000446191	0.00301805
12.8227	12.689	-1.85092e-06	0.00215961
12.8232	12.6885	0.000510245	0.00299592
12.8237	12.6881	9.78466e-05	0.00410191
12.8242	12.6876	-0.00136601	0.00392147
12.8246	12.6871	-0.000348491	0.003217
12.8251	12.6866	7.69083e-05	0.00233554
12.8256	12.6861	0.000534518	0.00292136
12.8261	12.6857	0.000163604	0.00412338
12.8265	12.6852	-0.00135708	0.00377185
12.827	12.6847	-0.000162366	0.00306459
12.8275	12.6842	9.17113e-05	0.0022695
12.8279	12.6838	0.000403877	0.00295765
12.8284	12.6833	0.000215218	0.00425711
12.8289	12.6828	-0.00151766	0.00389812
12.8294	12.6824	-0.000364365	0.0030378
12.8298	12.6819	1.34872e-05	0.00231874
12.8303	12.6814	0.000463963	0.00299609
12.8308	12.6809	0.000254027	0.00419844
12.8312	12.6805	-0.00143584	0.00389688
12.8317	12.68	-0.000405777	0.00298519
12.8322	12.6795	0.000123921	0.00232325
12.8327	12.6791	0.000389805	0.00299125
12.8331	12.6786	0.000266833	0.00423301
12.8336	12.6781	-0.00146904	0.00380519
12.8341	12.6776	-0.000300943	0.00309777
12.8346	12.6772	0.000264568	0.00230375
12.835	12.6767	0.000385204	0.0030305
12.8355	12.6762	0.000163069	0.00418254
12.836	12.6757	-0.00145164	0.00384846
12.8364	12.6752	-0.000355429	0.00287406
12.8369	12.6748	0.000221086	0.00231047
12.8374	12.6743	0.000233089	0.00299625
12.8379	12.6738	0.000254562	0.00426104
12.8383	12.6733	-0.00130493	0.00382231
12.8388	12.6729	-0.00033829	0.00291062
12.8393	12.6724	0.000306516	0.0022454
12.8397	12.6719	0.000307782	0.00309852
12.8402	12.6715	0.000285774	0.00430103
12.8407	12.671	-0.00134047	0.00378479
12.8412	12.6705	-0.000292543	0.00290267
12.8416	12.6701	0.00032592	0.00231481
12.8421	12.6696	0.000240491	0.0029992
12.8426	12.6691	0.000244361	0.00430259
12.8431	12.6687	-0.00138649	0.00371596
12.8435	12.6682	-0.000289475	0.00291201
12.844	12.6677	0.000388004	0.00233865
12.8445	12.6673	0.000194744	0.00308655
12.8449	12.6668	0.000300844	0.00429775
12.8454	12.6663	-0.00140083	0.00369153
12.8459	12.6658	-0.00025113	0.00278918
12.8464	12.6654	0.000398277	0.00234767
12.8468	12.6649	0.000333322	0.00323724
12.8473	12.6644	0.000229825	0.00436003
12.8478	12.6639	-0.00143764	0.00371907
12.8482	12.6635	-0.000385107	0.0029184
12.8487	12.663	0.000467298	0.00246632
12.8492	12.6625	4.2897e-05	0.003045
12.8497	12.6621	0.000132589	0.00439632
12.8501	12.6616	-0.00126378	0.00368965
12.8506	12.6611	-0.000363366	0.00276148
12.8511	12.6606	0.00045756	0.00239733
12.8516	12.6602	0.000178407	0.00312875
12.852	12.6597	0.000164068	0.00425915
12.8525	12.6592	-0.00127759	0.00385592
12.853	12.6588	-0.000378169	0.00265996
12.8534	12.6583	0.000621678	0.00244903
12.8539	12.6578	0.000120586	0.0031113
12.8544	12.6574	5.89664e-05	0.00431348
12.8549	12.6569	-0.00141923	0.00366662
12.8553	12.6564	-0.000324486	0.00268535
12.8558	12.6559	0.000686097	0.00237881
12.8563	12.6555	4.2897e-05	0.00313293
12.8567	12.655	2.57576e-05	0.00431144
12.8572	12.6545	-0.00122364	0.00365884
12.8577	12.654	-0.000341892	0.00266839
12.8582	12.6535	0.000617344	0.00248886
12.8586	12.6531	1.73573e-05	0.00326215
12.8591	12.6526	6.89717e-05	0.00412494
12.8596	12.6521	-0.00117655	0.00372858
12.8601	12.6517	-0.000369768	0.00257031
12.8605	12.6512	0.000597404	0.00237618
12.861	12.6507	-4.38354e-06	0.00323617
12.8615	12.6502	-0.000120222	0.00442386
12.8619	12.6498	-0.00121083	0.00379225
12.8624	12.6493	-0.00050881	0.00256343
12.8629	12.6488	0.000713242	0.00247378
12.8634	12.6484	-7.16036e-05	0.0032715
12.8638	12.6479	-0.000134026	0.00428702
12.8643	12.6474	-0.001117	0.00382715
12.8648	12.6469	-0.000495006	0.00266979
12.8652	12.6465	0.000777127	0.00252843
12.8657	12.646	4.21657e-05	0.00328674
12.8662	12.6455	-0.000139894	0.00449966
12.8667	12.645	-0.001117	0.00359329
12.8671	12.6445	-0.000462261	0.00256424
12.8676	12.6441	0.000817274	0.00260112
12.8681	12.6436	-0.00010722	0.00340088
12.8686	12.6431	-3.25271e-05	0.00435257
12.869	12.6427	-0.000969487	0.00368874
12.8695	12.6422	-0.000523346	0.00255162
12.87	12.6417	0.000858419	0.00256252
12.8704	12.6413	3.72968e-05	0.00347496
12.8709	12.6408	-0.000273602	0.00435069
12.8714	12.6403	-0.000965421	0.00355469
12.8719	12.6399	-0.000455591	0.00254416
12.8723	12.6394	0.000864019	0.00260644
12.8728	12.6389	-9.78746e-06	0.00340711
12.8733	12.6385	-0.000305545	0.00428095
12.8737	12.638	-0.00107352	0.00355576
12.8742	12.6375	-0.000486802	0.00236184
12.8747	12.637	0.00102081	0.00270903
12.8752	12.6366	-7.24061e-05	0.00345505
12.8756	12.6361	-0.000336489	0.00435708
12.8761	12.6356	-0.000930143	0.00363082
12.8766	12.6351	-0.000355162	0.00239438
12.8771	12.6347	0.000872223	0.00265422
12.8775	12.6342	1.0687e-05	0.00343062
12.878	12.6337	-0.000307614	0.00428841
12.8785	12.6333	-0.000689068	0.00356215
12.8789	12.6328	-0.000428249	0.00230236
12.8794	12.6323	0.000972188	0.00269953
12.8799	12.6319	-0.000136559	0.00349225
12.8804	12.6314	-0.000358497	0.00439739
12.8808	12.6309	-0.000805637	0.00352307
12.8813	12.6304	-0.000487337	0.002343
12.8818	12.63	0.000929242	0.00267741
12.8822	12.6295	-6.32032e-05	0.00351077
12.8827	12.629	-0.000545889	0.00428981
12.8832	12.6286	-0.000751687	0.00362255
12.8837	12.6281	-0.000512413	0.00245977
12.8841	12.6276	0.00104734	0.00273297
12.8846	12.6271	-0.000110216	0.00354658
12.8851	12.6267	-0.000427518	0.00424917
12.8856	12.6262	-0.000803569	0.00358534
12.886	12.6257	-0.000591636	0.00227761
12.8865	12.6252	0.00096072	0.00279901
12.887	12.6247	-1.28551e-05	0.0035556
12.8874	12.6243	-0.000593704	0.00421057
12.8879	12.6238	-0.000598306	0.00353429
12.8884	12.6233	-0.000657857	0.00232743
12.8889	12.6228	0.000980392	0.00279541
12.8893	12.6224	-6.93385e-05	0.00342235
12.8898	12.6219	-0.000616712	0.0042948
12.8903	12.6214	-0.000627448	0.00354969
12.8907	12.621	-0.000690067	0.00224975
12.8912	12.6205	0.000967854	0.00283294
12.8917	12.62	-8.67453e-05	0.00359984
12.8922	12.6195	-0.00071154	0.00414051
12.8926	12.6191	-0.000646318	0.00352978
12.8931	12.6186	-0.000598038	0.00222811
12.8936	12.6181	0.00106168	0.00267913
12.8941	12.6177	-0.00013836	0.00367129
12.8945	12.6172	-0.000765491	0.00424498
12.895	12.6167	-0.000677796	0.00348479
12.8955	12.6162	-0.000698003	0.00221738
12.8959	12.6158	0.00108703	0.00275386
12.8964	12.6153	-7.47424e-05	0.00363688
12.8969	12.6148	-0.000819977	0.00417959
12.8974	12.6143	-0.000450525	0.00352618
12.8978	12.6139	-0.000651722	0.00229178
12.8983	12.6134	0.000969923	0.00266495
12.8988	12.6129	-2.17904e-05	0.0038528
