# 1304     AichiSR QXAFS
# Start     : 8.9544
# End       : 9.0544
# Dir       : Backward
# Points    : 300
# ScanTime  : 1.01549
# Date      : 13.04.23 22:59
# Ring Cur. : 0.9[mA]
12.7557	12.6121	0.00052758	0.00291111
12.7562	12.6126	0.000136727	0.00402594
12.7566	12.6131	-0.00140209	0.00386075
12.7571	12.6135	-0.000360494	0.00303361
12.7576	12.614	3.98294e-05	0.00222033
12.7581	12.6145	0.000443756	0.00295421
12.7585	12.6149	0.000103714	0.00404446
12.759	12.6154	-0.00140716	0.00378167
12.7595	12.6159	-0.00037717	0.00297101
12.7599	12.6164	1.70898e-05	0.002166
12.7604	12.6169	0.000409013	0.00291561
12.7609	12.6173	7.48395e-05	0.00409052
12.7614	12.6178	-0.0014243	0.00380675
12.7618	12.6183	-0.000313481	0.0030087
12.7623	12.6187	4.3432e-05	0.0021887
12.7628	12.6192	0.000396208	0.00284104
12.7632	12.6197	0.000190143	0.00408167
12.7637	12.6201	-0.00146191	0.00381388
12.7642	12.6206	-0.000388638	0.00303517
12.7647	12.6211	9.0445e-05	0.00217035
12.7651	12.6216	0.000382136	0.00293118
12.7656	12.6221	0.000240758	0.00420327
12.7661	12.6225	-0.00147878	0.00380691
12.7666	12.623	-0.000269536	0.00293193
12.767	12.6235	9.29777e-05	0.00221131
12.7675	12.6239	0.000410547	0.00294815
12.768	12.6244	0.000257363	0.00413181
12.7684	12.6249	-0.00145578	0.00377561
12.7689	12.6254	-0.000425717	0.0029307
12.7694	12.6258	0.000181671	0.00228851
12.7699	12.6263	0.000425885	0.00295593
12.7703	12.6268	0.000142595	0.0042853
12.7708	12.6273	-0.00159535	0.00365835
12.7713	12.6278	-0.000252397	0.00283573
12.7717	12.6282	0.000182206	0.00230408
12.7722	12.6287	0.000286505	0.00297569
12.7727	12.6292	0.000154865	0.00422957
12.7732	12.6296	-0.00139622	0.00372611
12.7736	12.6301	-0.000412715	0.00289022
12.7741	12.6306	0.000220355	0.00228416
12.7746	12.631	0.000167938	0.00297429
12.7751	12.6315	0.000126989	0.00421105
12.7755	12.632	-0.00144884	0.00368719
12.776	12.6324	-0.000356696	0.00283482
12.7765	12.6329	0.00031365	0.00222532
12.7769	12.6334	0.000285506	0.00300355
12.7774	12.6338	0.000168669	0.00434339
12.7779	12.6343	-0.00145957	0.00365433
12.7784	12.6348	-0.000374566	0.0028281
12.7788	12.6353	0.000355526	0.00228556
12.7793	12.6358	0.000150264	0.00310179
12.7798	12.6362	6.18377e-05	0.00419967
12.7802	12.6367	-0.00137268	0.00368236
12.7807	12.6372	-0.000344158	0.00262603
12.7812	12.6377	0.000411546	0.00218919
12.7817	12.6381	0.000121924	0.00297461
12.7821	12.6386	0.000136727	0.0042839
12.7826	12.6391	-0.00151353	0.00359968
12.7831	12.6395	-0.000328552	0.00262882
12.7836	12.64	0.000318519	0.00233693
12.784	12.6404	0.000144128	0.00300108
12.7845	12.6409	3.82956e-05	0.00421868
12.785	12.6414	-0.00128986	0.00362491
12.7854	12.6419	-0.000372034	0.00274108
12.7859	12.6423	0.000479301	0.00225893
12.7864	12.6428	0.000183276	0.00309589
12.7869	12.6432	3.5763e-05	0.0043057
12.7873	12.6437	-0.00130926	0.00362738
12.7878	12.6442	-0.000485268	0.00263865
12.7883	12.6447	0.000522515	0.00235594
12.7887	12.6451	9.96479e-05	0.00310007
12.7892	12.6456	0.000121121	0.00416058
12.7897	12.6461	-0.00130519	0.00380486
12.7902	12.6466	-0.000404244	0.00258228
12.7906	12.6471	0.000469831	0.00240978
12.7911	12.6475	4.52333e-05	0.00309761
12.7916	12.648	-6.44695e-05	0.00423671
12.7921	12.6485	-0.00124411	0.0036014
12.7925	12.649	-0.000366897	0.00270838
12.793	12.6494	0.0005836	0.00230859
12.7935	12.6499	8.17772e-05	0.00324208
12.7939	12.6504	-0.000146296	0.00423253
12.7944	12.6508	-0.00119143	0.00355141
12.7949	12.6513	-0.000462528	0.0025935
12.7954	12.6518	0.000727314	0.00241822
12.7958	12.6523	-4.85965e-05	0.00319521
12.7963	12.6527	-0.000114086	0.00422179
12.7968	12.6532	-0.00117015	0.00359656
12.7972	12.6537	-0.000482468	0.00256408
12.7977	12.6541	0.000800669	0.00251581
12.7982	12.6546	-0.000120685	0.00321889
12.7987	12.6551	-0.000193844	0.00423129
12.7991	12.6556	-0.00110914	0.0035301
12.7996	12.6561	-0.000388174	0.00250164
12.8001	12.6565	0.000836946	0.00241896
12.8006	12.657	-4.11949e-05	0.00315784
12.801	12.6575	-0.000137094	0.00424949
12.8015	12.658	-0.000977691	0.00352667
12.802	12.6584	-0.000512413	0.00238659
12.8024	12.6589	0.000795265	0.00243641
12.8029	12.6594	-4.96168e-08	0.00319693
12.8034	12.6598	-8.62104e-05	0.00420466
12.8039	12.6603	-0.00107946	0.00355265
12.8043	12.6608	-0.000467665	0.00256392
12.8048	12.6613	0.000998798	0.00239642
12.8053	12.6617	3.18928e-05	0.00341801
12.8057	12.6622	-0.000235257	0.00423392
12.8062	12.6627	-0.00101964	0.00347529
12.8067	12.6631	-0.000419047	0.00237274
12.8072	12.6636	0.000915437	0.00264488
12.8076	12.664	6.00364e-05	0.00336459
12.8081	12.6645	-0.000464062	0.00417074
12.8086	12.665	-0.000951617	0.00358288
12.8091	12.6655	-0.000536686	0.00238257
12.8095	12.666	0.000803737	0.00257932
12.81	12.6664	-8.23402e-05	0.00338187
12.8105	12.6669	-0.000400908	0.0042635
12.8109	12.6674	-0.00104898	0.00350159
12.8114	12.6679	-0.000484269	0.00233398
12.8119	12.6683	0.000938979	0.00260547
12.8124	12.6688	-0.000155499	0.00345956
12.8128	12.6693	-0.00045279	0.00411125
12.8133	12.6697	-0.000919674	0.00346374
12.8138	12.6702	-0.000520813	0.00229023
12.8142	12.6707	0.000885564	0.00261062
12.8147	12.6711	-5.12003e-05	0.0033568
12.8152	12.6716	-0.000660461	0.00405692
12.8157	12.6721	-0.000814573	0.00346562
12.8161	12.6725	-0.000558891	0.00229023
12.8166	12.673	0.000926709	0.00271649
12.8171	12.6735	-8.13414e-05	0.00337925
12.8176	12.6739	-0.000545621	0.00421744
12.818	12.6744	-0.000845516	0.00343325
12.8185	12.6749	-0.000590904	0.00220181
12.819	12.6754	0.0010975	0.00261529
12.8194	12.6759	-5.91368e-05	0.0035651
12.8199	12.6763	-0.000622312	0.0042154
12.8204	12.6768	-0.000862121	0.00347169
12.8209	12.6773	-0.000413446	0.00218189
12.8213	12.6778	0.00103994	0.00271601
12.8218	12.6783	-4.24612e-05	0.00350503
12.8223	12.6787	-0.000648654	0.00411796
12.8227	12.6792	-0.000603906	0.00352028
12.8232	12.6796	-0.000622847	0.00203178
12.8237	12.6801	0.00109236	0.00275665
12.8242	12.6806	-0.00013169	0.00337581
12.8246	12.6811	-0.000657857	0.00423113
12.8251	12.6816	-0.000612378	0.00350814
12.8256	12.682	-0.000645854	0.00216879
12.8261	12.6825	0.00103201	0.0026525
12.8265	12.6829	-8.72092e-05	0.00364762
12.827	12.6834	-0.000797701	0.0040516
12.8275	12.6839	-0.000617443	0.00341162
12.8279	12.6844	-0.000609042	0.00214576
12.8284	12.6848	0.00092744	0.00262415
12.8289	12.6853	-9.02768e-05	0.00356543
12.8294	12.6858	-0.000732478	0.00412698
12.8298	12.6863	-0.00064325	0.00333082
12.8303	12.6868	-0.000621045	0.0021937
12.8308	12.6872	0.000867889	0.00273813
12.8312	12.6877	-0.000114086	0.0035855
12.8317	12.6882	-0.000971824	0.00399899
12.8322	12.6887	-0.00054102	0.00343277
12.8327	12.6891	-0.000716409	0.0020984
12.8331	12.6896	0.000907768	0.00273813
12.8336	12.69	-0.00010615	0.00365835
12.8341	12.6905	-0.000908135	0.00401128
12.8346	12.691	-0.000616979	0.00334918
12.835	12.6915	-0.000540021	0.00215027
12.8355	12.6919	0.00095405	0.00267601
12.836	12.6924	-0.000131957	0.00355346
12.8364	12.6929	-0.000984558	0.00401193
12.8369	12.6933	-0.000622579	0.0032533
12.8374	12.6938	-0.000551489	0.00215838
12.8379	12.6943	0.00088016	0.00283884
12.8383	12.6947	-9.36119e-05	0.00374758
12.8388	12.6952	-0.000964155	0.00404382
12.8393	12.6957	-0.000510344	0.00326887
12.8397	12.6962	-0.000549955	0.00213749
12.8402	12.6966	0.000902168	0.00285768
12.8407	12.6971	-7.52062e-05	0.00365524
12.8412	12.6976	-0.000925542	0.00410191
12.8416	12.6981	-0.000508542	0.00324568
12.8421	12.6985	-0.000533618	0.00213019
12.8426	12.699	0.000827011	0.00282998
12.8431	12.6995	1.14895e-05	0.00374136
12.8435	12.6999	-0.00108559	0.00397006
12.844	12.7004	-0.000490137	0.00323864
12.8445	12.7009	-0.000491938	0.00206357
12.8449	12.7013	0.000760255	0.00274452
12.8454	12.7018	3.59593e-05	0.00377201
12.8459	12.7023	-0.00117529	0.00415484
12.8464	12.7027	-0.000514945	0.00315366
12.8468	12.7032	-0.000419849	0.00214592
12.8473	12.7037	0.00060914	0.00284244
12.8478	12.7042	-3.38473e-06	0.0036867
12.8482	12.7046	-0.00116715	0.00395228
12.8487	12.7051	-0.000290207	0.00309852
12.8492	12.7056	-0.000319349	0.00221115
12.8497	12.7061	0.000724978	0.00288931
12.8501	12.7066	7.59095e-05	0.00391106
12.8506	12.707	-0.0012137	0.00390091
12.8511	12.7075	-0.00043772	0.00307286
12.8516	12.708	-0.000277473	0.00215977
12.852	12.7085	0.000685634	0.00275321
12.8525	12.7089	-0.000155232	0.00388067
12.853	12.7094	-0.0013228	0.00394654
12.8534	12.7099	-0.00032115	0.00318587
12.8539	12.7103	-0.00030221	0.00211323
12.8544	12.7108	0.000599473	0.00271944
12.8549	12.7113	1.70898e-05	0.00393843
12.8553	12.7118	-0.00115508	0.00383445
12.8558	12.7122	-0.000451524	0.00315645
12.8563	12.7127	-0.000246993	0.00225007
12.8567	12.7132	0.000568797	0.00287497
12.8572	12.7136	9.93804e-05	0.00388115
12.8577	12.7141	-0.00136475	0.00376954
12.8582	12.7146	-0.000411181	0.00314834
12.8586	12.7151	-0.000132225	0.00215231
12.8591	12.7155	0.000599205	0.00282311
12.8596	12.716	3.90269e-05	0.00398579
12.8601	12.7165	-0.00132414	0.00389779
12.8605	12.717	-0.000429319	0.00301805
12.861	12.7175	-0.000104884	0.00210823
12.8615	12.7179	0.000604342	0.00291733
12.8619	12.7184	-2.45905e-05	0.00397719
12.8624	12.7189	-0.00131846	0.00379864
12.8629	12.7193	-0.000425984	0.00294348
12.8634	12.7198	-6.22044e-05	0.00212396
12.8638	12.7202	0.000517914	0.00284088
12.8643	12.7207	0.000116787	0.00394622
12.8648	12.7212	-0.00149999	0.0037493
12.8652	12.7217	-0.000379435	0.00303034
12.8657	12.7221	5.81811e-06	0.00215027
12.8662	12.7226	0.000406213	0.00278033
12.8667	12.7231	0.000175339	0.00407233
12.8671	12.7235	-0.00150739	0.00376889
12.8676	12.724	-0.000351095	0.00288415
12.8681	12.7245	0.000115985	0.00211757
12.8686	12.7249	0.000260234	0.00288259
12.869	12.7254	0.000244825	0.00408215
12.8695	12.7259	-0.00159608	0.00369776
12.87	12.7264	-0.000333956	0.00291201
12.8704	12.7268	4.66959e-05	0.0021347
12.8709	12.7273	0.000349462	0.00282359
12.8714	12.7278	0.0001582	0.00405708
12.8719	12.7283	-0.00158335	0.00362147
12.8723	12.7287	-0.000391973	0.00286252
12.8728	12.7292	0.000178407	0.00230891
12.8733	12.7297	0.000276036	0.00291373
12.8737	12.7301	0.000164335	0.00425293
12.8742	12.7306	-0.00159355	0.00369792
12.8747	12.7311	-0.000439254	0.00299346
12.8752	12.7316	0.000226151	0.0021333
12.8756	12.732	0.000293906	0.00288259
12.8761	12.7325	0.000191944	0.00414067
12.8766	12.733	-0.00147878	0.00353649
12.8771	12.7334	-0.000286408	0.00285768
12.8775	12.7339	0.000326384	0.00223762
12.878	12.7344	0.0002615	0.00293537
12.8785	12.7349	0.000212151	0.00423736
12.8789	12.7354	-0.00157054	0.00361385
12.8794	12.7358	-0.000347493	0.00276288
12.8799	12.7363	0.000292373	0.00221657
12.8804	12.7368	0.000239492	0.00290922
12.8808	12.7373	0.00011372	0.00420901
12.8813	12.7378	-0.00139342	0.00369244
12.8818	12.7382	-0.000348491	0.00279246
12.8822	12.7387	0.000251762	0.00217378
12.8827	12.7392	0.000220355	0.00290922
12.8832	12.7396	0.000157933	0.00423424
12.8837	12.7401	-0.00140769	0.00363983
12.8841	12.7406	-0.000437256	0.00271182
12.8846	12.7411	0.000367065	0.00220739
12.8851	12.7415	0.000238493	0.00302411
12.8856	12.742	0.000160733	0.00424686
12.886	12.7425	-0.00130339	0.00361476
12.8865	12.7429	-0.000372301	0.00277361
12.887	12.7434	0.000331788	0.00229941
12.8874	12.7439	0.000110652	0.0030632
12.8879	12.7443	0.000153331	0.00422007
12.8884	12.7448	-0.00137115	0.00371956
12.8889	12.7453	-0.000381236	0.0025331
12.8893	12.7458	0.00046596	0.00227589
12.8898	12.7462	0.000108851	0.00297601
12.8903	12.7467	3.24278e-05	0.0042431
12.8907	12.7472	-0.00130466	0.00360746
12.8912	12.7477	-0.000357766	0.00267757
12.8917	12.7482	0.000450159	0.00230408
12.8922	12.7486	4.77659e-05	0.0031907
12.8926	12.7491	6.43703e-05	0.00428669
12.8931	12.7495	-0.00133867	0.00353117
12.8936	12.75	-0.000491938	0.00262914
12.8941	12.7505	0.00059587	0.00234021
12.8945	12.7509	0.000146928	0.0031376
12.895	12.7514	-7.98616e-06	0.00426538
12.8955	12.7519	-0.0012045	0.00346095
12.8959	12.7523	-0.000455127	0.00255753
12.8964	12.7528	0.000607338	0.00236759
12.8969	12.7533	-9.51996e-06	0.00311924
12.8974	12.7537	-4.9399e-05	0.00422662
12.8978	12.7542	-0.00125811	0.00370882
12.8983	12.7547	-0.000378704	0.00249885
12.8988	12.7552	0.000788934	0.00242863
