# 1304     AichiSR QXAFS
# Start     : 8.9544
# End       : 9.0544
# Dir       : Forward
# Points    : 300
# ScanTime  : 1.01549
# Date      : 13.04.24 00:07
# Ring Cur. : 1[mA]
12.7557	12.7563	-0.000708205	0.00335713
12.7562	12.7558	-0.000589103	0.00215961
12.7566	12.7553	0.0011187	0.002667
12.7571	12.7548	-5.42679e-05	0.00341424
12.7576	12.7544	-0.000651722	0.00415656
12.7581	12.7539	-0.000549224	0.00342375
12.7585	12.7534	-0.000640717	0.00210045
12.759	12.7529	0.00099573	0.00262185
12.7595	12.7525	-1.28551e-05	0.00339245
12.7599	12.752	-0.000645586	0.00420917
12.7604	12.7516	-0.000661192	0.00340039
12.7609	12.7511	-0.000502942	0.00218403
12.7614	12.7506	0.00114524	0.00273625
12.7618	12.7501	-1.56552e-05	0.00359549
12.7623	12.7497	-0.000801303	0.00410035
12.7628	12.7492	-0.000619244	0.00328862
12.7632	12.7488	-0.000527947	0.00216133
12.7637	12.7483	0.000944847	0.00266012
12.7642	12.7478	-7.7275e-05	0.00360746
12.7647	12.7474	-0.000666525	0.00415919
12.7651	12.7469	-0.000657589	0.00334655
12.7656	12.7464	-0.000565026	0.00208643
12.7661	12.7459	0.00107089	0.00266216
12.7666	12.7454	-5.03978e-05	0.00354798
12.767	12.745	-0.000845249	0.00402234
12.7675	12.7445	-0.000558159	0.0033772
12.768	12.744	-0.000643785	0.00209857
12.7684	12.7435	0.000801936	0.00271117
12.7689	12.7431	-4.63313e-05	0.00365417
12.7694	12.7426	-0.000927076	0.00419811
12.7699	12.7421	-0.000369965	0.00326371
12.7703	12.7417	-0.0005827	0.00219746
12.7708	12.7412	0.000897032	0.00267848
12.7713	12.7407	-0.00011842	0.00374619
12.7717	12.7402	-0.00095208	0.0040661
12.7722	12.7398	-0.000380434	0.00335884
12.7727	12.7393	-0.000611843	0.0021406
12.7732	12.7389	0.000936643	0.0027836
12.7736	12.7384	-4.04636e-05	0.00367613
12.7741	12.7379	-0.000948281	0.00406208
12.7746	12.7374	-0.000510611	0.00319209
12.7751	12.737	-0.000462064	0.00206512
12.7755	12.7365	0.000732379	0.00275869
12.776	12.736	-4.27287e-05	0.0037362
12.7765	12.7355	-0.000964422	0.00404479
12.7769	12.735	-0.000424451	0.00326822
12.7774	12.7346	-0.000467397	0.00206185
12.7779	12.7341	0.000852551	0.0026525
12.7784	12.7336	1.5021e-05	0.00380953
12.7788	12.7331	-0.00106078	0.00398186
12.7793	12.7327	-0.00035336	0.0031893
12.7798	12.7322	-0.000516212	0.00215371
12.7802	12.7317	0.000760255	0.00280695
12.7807	12.7313	1.16858e-05	0.00372858
12.7812	12.7308	-0.00109426	0.00390483
12.7817	12.7303	-0.000402175	0.0031616
12.7821	12.7298	-0.000371302	0.0020553
12.7826	12.7294	0.000681496	0.00278843
12.7831	12.7289	4.26295e-05	0.00385952
12.7836	12.7284	-0.0011012	0.00387804
12.784	12.728	-0.000384572	0.0030414
12.7845	12.7275	-0.000322952	0.00199769
12.785	12.727	0.000751052	0.00272304
12.7854	12.7265	0.000104517	0.00380953
12.7859	12.7261	-0.00120243	0.00387337
12.7864	12.7256	-0.000429319	0.00302846
12.7869	12.7251	-0.000213053	0.00213502
12.7873	12.7246	0.000644221	0.00282359
12.7878	12.7242	0.000106782	0.00394917
12.7883	12.7237	-0.00116995	0.00390188
12.7887	12.7232	-0.000420384	0.00303796
12.7892	12.7228	-0.000269268	0.00210963
12.7897	12.7223	0.000609942	0.0028739
12.7902	12.7218	0.000165138	0.00386091
12.7906	12.7214	-0.00127425	0.0038877
12.7911	12.7209	-0.000308345	0.00297445
12.7916	12.7204	-0.000149899	0.00226113
12.7921	12.7199	0.000619145	0.00277222
12.7925	12.7195	4.16307e-05	0.0039649
12.793	12.719	-0.00135167	0.00382403
12.7935	12.7186	-0.000336756	0.00297789
12.7939	12.7181	-6.62708e-05	0.00215649
12.7944	12.7176	0.000518645	0.00288882
12.7949	12.7171	0.000127256	0.00396834
12.7954	12.7167	-0.00135834	0.00380036
12.7958	12.7162	-0.00029661	0.00309106
12.7963	12.7157	-3.37934e-05	0.00215993
12.7968	12.7152	0.000462429	0.00288136
12.7972	12.7148	0.000196278	0.00395014
12.7977	12.7143	-0.00140462	0.00384722
12.7982	12.7138	-0.00024726	0.00298986
12.7987	12.7133	2.54901e-05	0.00221533
12.7991	12.7129	0.000398277	0.00282032
12.7996	12.7124	9.37802e-05	0.00413321
12.8001	12.7119	-0.00134301	0.00368998
12.8006	12.7115	-0.000354894	0.00300124
12.801	12.711	6.87042e-05	0.00214732
12.8015	12.7105	0.000539119	0.00289242
12.802	12.71	0.000102983	0.00403652
12.8024	12.7096	-0.00138675	0.00376079
12.8029	12.7091	-0.000278471	0.00285522
12.8034	12.7086	0.000237691	0.00217067
12.8039	12.7082	0.000342792	0.00286751
12.8043	12.7077	0.000225955	0.00408339
12.8048	12.7072	-0.00137495	0.00366228
12.8053	12.7067	-0.000328819	0.00286891
12.8057	12.7063	0.000227489	0.00222656
12.8062	12.7058	0.000271702	0.00289366
12.8067	12.7053	0.00018374	0.0041564
12.8072	12.7048	-0.00130926	0.00385936
12.8076	12.7043	-0.000302745	0.00291078
12.8081	12.7039	0.000173003	0.0023044
12.8086	12.7034	0.00028424	0.00292463
12.8091	12.7029	0.000311848	0.00418287
12.8095	12.7024	-0.00139136	0.00367548
12.81	12.702	-0.000227321	0.00281393
12.8105	12.7015	0.000331788	0.00233119
12.8109	12.701	0.000301112	0.00293897
12.8114	12.7006	0.000173538	0.00408994
12.8119	12.7001	-0.00137475	0.00367768
12.8124	12.6996	-0.00034776	0.00283933
12.8128	12.6992	0.000256364	0.0021996
12.8133	12.6987	0.000219017	0.0029307
12.8138	12.6982	0.000127524	0.00416295
12.8142	12.6978	-0.00139722	0.00355608
12.8147	12.6973	-0.000349294	0.00282548
12.8152	12.6968	0.000324386	0.00215118
12.8157	12.6964	0.000206747	0.00309278
12.8161	12.6959	0.00022262	0.00418614
12.8166	12.6954	-0.00134274	0.00371644
12.8171	12.6949	-0.000319884	0.0026715
12.8176	12.6944	0.000343791	0.00235701
12.818	12.694	0.000249694	0.00300838
12.8185	12.6935	0.000217484	0.00416247
12.819	12.693	-0.00132053	0.00369014
12.8194	12.6926	-0.000276938	0.00275713
12.8199	12.6921	0.000462162	0.00232882
12.8204	12.6917	9.12475e-05	0.0029992
12.8209	12.6912	5.18323e-05	0.00415624
12.8213	12.6907	-0.00121597	0.00347684
12.8218	12.6902	-0.000310949	0.00266823
12.8223	12.6898	0.000493105	0.00229039
12.8227	12.6893	5.79676e-05	0.00318259
12.8232	12.6888	4.52333e-05	0.00418754
12.8237	12.6884	-0.00129599	0.0035578
12.8242	12.6879	-0.000278204	0.00258571
12.8246	12.6874	0.000463695	0.00226532
12.8251	12.6869	-8.56754e-05	0.00302427
12.8256	12.6865	0.000125188	0.00429276
12.8261	12.686	-0.00124737	0.00359689
12.8265	12.6855	-0.000471999	0.00254073
12.827	12.685	0.000472631	0.00234939
12.8275	12.6845	1.4486e-05	0.00302304
12.8279	12.6841	6.46378e-05	0.00412526
12.8284	12.6836	-0.00120569	0.00357649
12.8289	12.6831	-0.000450525	0.00258276
12.8294	12.6826	0.00059307	0.00230268
12.8298	12.6822	8.86437e-05	0.00305697
12.8303	12.6817	-0.00014396	0.00408355
12.8308	12.6812	-0.00112774	0.00345381
12.8312	12.6808	-0.000480203	0.00251533
12.8317	12.6803	0.00065362	0.0022826
12.8322	12.6798	4.08282e-05	0.00310212
12.8327	12.6794	-0.000193042	0.00417975
12.8331	12.6789	-0.00111213	0.00358395
12.8336	12.6784	-0.000484269	0.00248001
12.8341	12.6779	0.000863555	0.00247501
12.8346	12.6775	7.17718e-05	0.00323429
12.835	12.677	-0.000219652	0.00409584
12.8355	12.6765	-0.000987893	0.00364966
12.836	12.676	-0.000431585	0.00245493
12.8364	12.6755	0.000797334	0.00249418
12.8369	12.6751	8.991e-05	0.00329968
12.8374	12.6746	-0.000211251	0.00424981
12.8379	12.6741	-0.00103444	0.0034784
12.8383	12.6736	-0.000342891	0.00247657
12.8388	12.6732	0.000897834	0.00244452
12.8393	12.6727	-3.94648e-05	0.00318415
12.8397	12.6722	-0.000233991	0.00415951
12.8402	12.6718	-0.000994028	0.00345693
12.8407	12.6713	-0.000424914	0.00243486
12.8412	12.6708	0.000796068	0.00235824
12.8416	12.6704	-8.4944e-05	0.00330263
12.8421	12.6699	-0.000229122	0.00421352
12.8426	12.6694	-0.000886127	0.00348119
12.8431	12.669	-0.000392508	0.00228212
12.8435	12.6685	0.000931845	0.00246009
12.844	12.668	4.84972e-05	0.00334172
12.8445	12.6676	-0.000428249	0.00405831
12.8449	12.6671	-0.00097589	0.00347062
12.8454	12.6666	-0.000438986	0.00231235
12.8459	12.6661	0.000882692	0.00246025
12.8464	12.6657	-5.45354e-05	0.0033881
12.8468	12.6652	-0.000326751	0.00426645
12.8473	12.6647	-0.000896667	0.00348946
12.8478	12.6642	-0.000478134	0.00223638
12.8482	12.6638	0.00101414	0.00244731
12.8487	12.6633	-1.15888e-05	0.00342031
12.8492	12.6628	-0.000489405	0.00419188
12.8497	12.6624	-0.000791566	0.00359329
12.8501	12.6619	-0.000474799	0.00233849
12.8506	12.6614	0.00104454	0.00264192
12.8511	12.661	-7.21386e-05	0.00347201
12.8516	12.6605	-0.000519279	0.00412108
12.852	12.66	-0.00074762	0.00338236
12.8525	12.6595	-0.000566096	0.00217657
12.853	12.6591	0.000972456	0.00262308
12.8534	12.6586	-4.63313e-05	0.00352667
12.8539	12.6581	-0.000533083	0.00409772
12.8544	12.6577	-0.000912736	0.00347668
12.8549	12.6572	-0.000522882	0.00220181
12.8553	12.6567	0.00103074	0.00256236
12.8558	12.6562	-8.67453e-05	0.00344447
12.8563	12.6558	-0.000672927	0.00402111
12.8567	12.6553	-0.000748084	0.00342842
12.8572	12.6548	-0.00059704	0.00212192
12.8577	12.6543	0.0010947	0.00259956
12.8582	12.6539	-3.45959e-05	0.00347341
12.8586	12.6534	-0.00077596	0.00422007
12.8591	12.6529	-0.000675728	0.00346267
12.8596	12.6524	-0.000528482	0.00219386
12.8601	12.652	0.00108243	0.00258104
12.8605	12.6515	-1.13213e-05	0.0034362
12.861	12.651	-0.000656323	0.00413665
12.8615	12.6505	-0.000625112	0.00334869
12.8619	12.6501	-0.00067266	0.00218001
12.8624	12.6496	0.00113477	0.00264847
12.8629	12.6491	-7.54737e-05	0.00347373
12.8634	12.6487	-0.000673195	0.00408011
12.8638	12.6482	-0.000495006	0.0033663
12.8643	12.6477	-0.000643518	0.00209766
12.8648	12.6472	0.00103227	0.00265717
12.8652	12.6468	-8.25365e-06	0.00354519
12.8657	12.6463	-0.000784628	0.0040443
12.8662	12.6458	-0.000563492	0.00343046
12.8667	12.6453	-0.000622312	0.00220148
12.8671	12.6448	0.000964787	0.00267634
12.8676	12.6444	-9.10793e-05	0.00352946
12.8681	12.6439	-0.000821707	0.00396007
12.8686	12.6434	-0.000402175	0.00346767
12.869	12.643	-0.000490404	0.00206464
12.8695	12.6425	0.000869423	0.00272862
12.87	12.642	-9.95508e-05	0.00359082
12.8704	12.6416	-0.000903534	0.00401161
12.8709	12.6411	-0.000534885	0.00326699
12.8714	12.6406	-0.000464597	0.00214109
12.8719	12.6402	0.000930044	0.00270511
12.8723	12.6397	-2.4858e-05	0.00372374
12.8728	12.6392	-0.000926273	0.0040071
12.8733	12.6388	-0.000421115	0.00317078
12.8737	12.6383	-0.000491207	0.00210388
12.8742	12.6378	0.000969923	0.00270699
12.8747	12.6374	-3.30621e-05	0.003753
12.8752	12.6369	-0.000953418	0.00396678
12.8756	12.6364	-0.000404244	0.00320208
12.8761	12.6359	-0.000382503	0.00213626
12.8766	12.6355	0.000879161	0.00279418
12.8771	12.635	4.49658e-05	0.00372251
12.8775	12.6345	-0.000882595	0.00389876
12.878	12.634	-0.00037717	0.00324084
12.8785	12.6336	-0.000395843	0.00217518
12.8789	12.6331	0.000832879	0.00271354
12.8794	12.6326	3.54955e-05	0.003699
12.8799	12.6322	-0.000996365	0.0040647
12.8804	12.6317	-0.000402442	0.00316144
12.8808	12.6312	-0.000361029	0.00218436
12.8813	12.6307	0.000764589	0.00279745
12.8818	12.6303	8.09747e-05	0.00387304
12.8822	12.6298	-0.00108172	0.0039867
12.8827	12.6293	-0.000349026	0.00303157
12.8832	12.6289	-0.00028507	0.00219418
12.8837	12.6284	0.000732647	0.0026416
12.8841	12.6279	-3.65935e-05	0.00385624
12.8846	12.6275	-0.00110193	0.00386354
12.8851	12.627	-0.000487337	0.00318914
12.8856	12.6265	-0.000130691	0.00211585
12.886	12.626	0.000631683	0.00270044
12.8865	12.6255	7.66408e-05	0.00382183
12.887	12.6251	-0.00121317	0.00393392
12.8874	12.6246	-0.000339824	0.00305632
12.8879	12.6241	-0.00019998	0.00209454
12.8884	12.6236	0.00061581	0.00271477
12.8889	12.6232	6.92392e-05	0.00389001
12.8893	12.6227	-0.00122437	0.00377405
12.8898	12.6222	-0.00042165	0.00305681
12.8903	12.6218	-0.000211251	0.00225147
12.8907	12.6213	0.000604538	0.00276722
12.8912	12.6208	0.000121924	0.0039976
12.8917	12.6203	-0.00126532	0.00382076
12.8922	12.6198	-0.000346958	0.00298052
12.8926	12.6194	-2.71232e-05	0.00215199
12.8931	12.6189	0.00048977	0.0028753
12.8936	12.6184	0.000162534	0.00385764
12.8941	12.618	-0.00126018	0.00380503
12.8945	12.6175	-0.000307346	0.00306336
12.895	12.617	-0.000160368	0.00210716
12.8955	12.6165	0.000400809	0.00273861
12.8959	12.6161	0.000125723	0.00395368
12.8964	12.6156	-0.0013134	0.00377077
12.8969	12.6151	-0.000368966	0.00303689
12.8974	12.6146	-4.01961e-05	0.00206775
12.8978	12.6142	0.000521249	0.00278451
12.8983	12.6137	0.000184275	0.00401333
12.8988	12.6132	-0.00139515	0.00380175
