# 1304     AichiSR QXAFS
# Start     : 8.9544
# End       : 9.0544
# Dir       : Forward
# Points    : 300
# ScanTime  : 1.01549
# Date      : 13.04.23 22:53
# Ring Cur. : 0.9[mA]
12.7557	12.756	0.000556259	0.00302518
12.7562	12.7555	0.000130057	0.0041863
12.7566	12.7551	-0.00128986	0.00379085
12.7571	12.7546	-0.000324486	0.00314195
12.7576	12.7541	-6.70733e-05	0.00227917
12.7581	12.7536	0.000538388	0.00297494
12.7585	12.7532	0.000135995	0.00422351
12.759	12.7527	-0.00136041	0.00392925
12.7595	12.7522	-0.000237326	0.00291857
12.7599	12.7518	4.10957e-05	0.00214732
12.7604	12.7513	0.000454225	0.00293881
12.7609	12.7508	0.000183009	0.00422163
12.7614	12.7504	-0.00134274	0.00377373
12.7618	12.7499	-0.000346226	0.00302239
12.7623	12.7494	0.000137993	0.00226499
12.7628	12.749	0.000380067	0.00284104
12.7632	12.7485	0.000278105	0.00418705
12.7637	12.748	-0.00139182	0.0037457
12.7642	12.7476	-0.000274405	0.00291389
12.7647	12.7471	0.000122655	0.00240716
12.7651	12.7466	0.000351995	0.00300436
12.7656	12.7461	0.000248695	0.00430693
12.7661	12.7457	-0.00147465	0.00377528
12.7666	12.7452	-0.000221453	0.00299641
12.767	12.7447	0.000255365	0.0022032
12.7675	12.7442	0.000294976	0.00303517
12.768	12.7438	0.000333322	0.00423736
12.7684	12.7433	-0.00136708	0.00379552
12.7689	12.7428	-0.000315015	0.00280212
12.7694	12.7424	0.000290375	0.00234488
12.7699	12.7419	0.00028704	0.00311736
12.7703	12.7414	0.000278568	0.00429496
12.7708	12.741	-0.00131693	0.00365196
12.7713	12.7405	-0.000334955	0.00287825
12.7717	12.74	0.00035146	0.00226982
12.7722	12.7395	0.00025483	0.00312236
12.7727	12.7391	0.000256899	0.00438183
12.7732	12.7386	-0.00142257	0.00370743
12.7736	12.7381	-0.000344158	0.00284958
12.7741	12.7377	0.000465497	0.0024406
12.7746	12.7372	0.000159734	0.00315924
12.7751	12.7367	0.000154865	0.00438961
12.7755	12.7362	-0.00116328	0.00376471
12.776	12.7357	-0.000290742	0.0028753
12.7765	12.7353	0.000584866	0.00240871
12.7769	12.7348	0.00019428	0.00316923
12.7774	12.7343	0.000154865	0.00427644
12.7779	12.7338	-0.00116995	0.00372235
12.7784	12.7333	-0.000231387	0.00270248
12.7788	12.7329	0.000553191	0.00253761
12.7793	12.7324	0.000125723	0.00326683
12.7798	12.732	-2.10591e-05	0.00423408
12.7802	12.7315	-0.00114821	0.00368326
12.7807	12.731	-0.000263865	0.00258292
12.7812	12.7305	0.000568797	0.00246256
12.7817	12.73	-4.5065e-05	0.00314555
12.7821	12.7296	-4.91315e-05	0.00423162
12.7826	12.7291	-0.00114641	0.00364606
12.7831	12.7286	-0.000381968	0.0026838
12.7836	12.7282	0.000729847	0.00227154
12.784	12.7277	8.08323e-06	0.00326559
12.7845	12.7272	1.4486e-05	0.00422818
12.785	12.7268	-0.0012111	0.00366958
12.7854	12.7263	-0.000524148	0.00263226
12.7859	12.7258	0.000807803	0.00250647
12.7864	12.7253	3.4693e-05	0.00314367
12.7869	12.7249	-0.00020278	0.00427317
12.7873	12.7244	-0.000990229	0.00358427
12.7878	12.7239	-0.000317084	0.00257498
12.7883	12.7234	0.000738782	0.00251893
12.7887	12.723	-1.10538e-05	0.00332443
12.7892	12.7225	-8.56754e-05	0.00426554
12.7897	12.722	-0.00103571	0.00359656
12.7902	12.7216	-0.000330353	0.00240216
12.7906	12.7211	0.000749519	0.00256547
12.7911	12.7206	9.93804e-05	0.00333221
12.7916	12.7202	-0.000237326	0.0043443
12.7921	12.7197	-0.000983559	0.00373046
12.7925	12.7192	-0.000430586	0.00246583
12.793	12.7188	0.000898565	0.00253262
12.7935	12.7183	2.14237e-05	0.00335852
12.7939	12.7178	-0.000348295	0.0043924
12.7944	12.7174	-0.00102264	0.00355141
12.7949	12.7169	-0.000497271	0.0024537
12.7954	12.7164	0.0008991	0.00255253
12.7958	12.7159	-2.33242e-05	0.00341334
12.7963	12.7155	-0.000426787	0.00425588
12.7968	12.715	-0.000809971	0.00350068
12.7972	12.7145	-0.00050321	0.00229752
12.7977	12.714	0.000981391	0.00265717
12.7982	12.7135	-5.06653e-05	0.00338982
12.7987	12.7131	-0.000380969	0.00415828
12.7991	12.7126	-0.000751419	0.0036218
12.7996	12.7121	-0.0005827	0.00226081
12.8001	12.7117	0.00103434	0.0025921
12.8006	12.7112	1.45572e-05	0.00344914
12.801	12.7107	-0.000551757	0.00420311
12.8015	12.7103	-0.000724809	0.00351593
12.802	12.7098	-0.000567095	0.00236684
12.8024	12.7093	0.00110923	0.00279246
12.8029	12.7089	1.34872e-05	0.0034376
12.8034	12.7084	-0.000593437	0.00430726
12.8039	12.7079	-0.000663457	0.00343653
12.8043	12.7074	-0.000498073	0.00232775
12.8048	12.707	0.00105401	0.00268675
12.8053	12.7065	-4.60638e-05	0.00348495
12.8057	12.706	-0.000558694	0.00415205
12.8062	12.7055	-0.000577831	0.00347373
12.8067	12.705	-0.000581166	0.00227686
12.8072	12.7045	0.000984726	0.0028331
12.8076	12.7041	-5.12003e-05	0.00363205
12.8081	12.7036	-0.000741949	0.00425244
12.8086	12.7031	-0.000580364	0.00352929
12.8091	12.7027	-0.000545621	0.00216756
12.8095	12.7022	0.00104201	0.00283449
12.81	12.7017	-3.43284e-05	0.00366974
12.8105	12.7013	-0.000873125	0.00422458
12.8109	12.7008	-0.000455127	0.00333082
12.8114	12.7003	-0.000458194	0.00209315
12.8119	12.6998	0.00103588	0.00278204
12.8124	12.6994	4.81931e-06	0.00371177
12.8128	12.6989	-0.000894331	0.00410003
12.8133	12.6985	-0.000480934	0.00342702
12.8138	12.698	-0.000577029	0.00213797
12.8142	12.6975	0.000948914	0.00277861
12.8147	12.697	-0.000107951	0.0037661
12.8152	12.6966	-0.000933211	0.0041346
12.8157	12.6961	-0.000655324	0.0033182
12.8161	12.6956	-0.000519547	0.00217313
12.8166	12.6951	0.000871492	0.00287809
12.8171	12.6946	-6.65383e-05	0.00375397
12.8176	12.6942	-0.00108326	0.00408699
12.818	12.6937	-0.000434385	0.00325297
12.8185	12.6932	-0.000460531	0.00215945
12.819	12.6928	0.000897032	0.0028186
12.8194	12.6923	-3.96611e-05	0.00372825
12.8199	12.6919	-0.00099583	0.00412838
12.8204	12.6914	-0.000422649	0.00324191
12.8209	12.6909	-0.0003677	0.00226982
12.8213	12.6904	0.000817006	0.00286703
12.8218	12.69	4.05607e-05	0.00376267
12.8223	12.6895	-0.00110246	0.0041469
12.8227	12.689	-0.000366433	0.00329018
12.8232	12.6886	-0.000334955	0.00211741
12.8237	12.6881	0.000816275	0.00284588
12.8242	12.6876	2.72914e-05	0.00386247
12.8246	12.6871	-0.00112854	0.00398096
12.8251	12.6867	-0.00037717	0.0031703
12.8256	12.6862	-0.000263597	0.0022155
12.8261	12.6857	0.000770457	0.00273845
12.8265	12.6852	0.000122388	0.00403636
12.827	12.6847	-0.0011106	0.00399185
12.8275	12.6843	-0.000238325	0.00331525
12.8279	12.6838	-0.000194379	0.00222017
12.8284	12.6833	0.000643953	0.00289693
12.8289	12.6829	0.000158735	0.00400817
12.8294	12.6824	-0.00125658	0.00401333
12.8298	12.6819	-0.000186175	0.00322618
12.8303	12.6815	-6.01356e-05	0.00231621
12.8308	12.681	0.000550124	0.00290316
12.8312	12.6805	0.000170738	0.00404307
12.8317	12.68	-0.00120623	0.00387525
12.8322	12.6796	-0.000295076	0.00311548
12.8327	12.6791	-5.14678e-05	0.0022876
12.8331	12.6786	0.000588736	0.00280228
12.8336	12.6782	0.000235158	0.00409724
12.8341	12.6777	-0.00144197	0.00388845
12.8346	12.6772	-0.000330086	0.00299952
12.835	12.6767	-1.38539e-05	0.00227015
12.8355	12.6762	0.000527384	0.00294471
12.836	12.6758	0.000160269	0.00415984
12.8364	12.6753	-0.00130773	0.00389935
12.8369	12.6748	-0.000396575	0.00310367
12.8374	12.6743	2.42238e-05	0.00230456
12.8379	12.6738	0.000431485	0.00306287
12.8383	12.6734	0.000195011	0.00424171
12.8388	12.6729	-0.00146931	0.00390467
12.8393	12.6724	-0.000214319	0.00306663
12.8397	12.672	7.48395e-05	0.00218017
12.8402	12.6715	0.000377535	0.00304279
12.8407	12.671	0.000151066	0.0041673
12.8412	12.6706	-0.00127732	0.00372841
12.8416	12.6701	-0.000312215	0.00296216
12.8421	12.6696	0.000184275	0.0022345
12.8426	12.6692	0.000401077	0.00300264
12.8431	12.6687	0.000220819	0.00423424
12.8435	12.6682	-0.0013356	0.00372874
12.844	12.6678	-0.000259531	0.00289988
12.8445	12.6673	0.000200612	0.00233521
12.8449	12.6668	0.000256899	0.00289382
12.8454	12.6664	0.00012599	0.00426318
12.8459	12.6659	-0.00140949	0.0038206
12.8464	12.6654	-0.000307346	0.00281597
12.8468	12.6649	0.000310315	0.00233849
12.8473	12.6644	0.000283437	0.00299813
12.8478	12.664	0.00031365	0.00424326
12.8482	12.6635	-0.00140643	0.00374071
12.8487	12.663	-0.000289208	0.00290144
12.8492	12.6626	0.000406409	0.00237693
12.8497	12.6621	0.000103447	0.00310851
12.8501	12.6616	0.000249497	0.00416058
12.8506	12.6612	-0.00141076	0.00356682
12.8511	12.6607	-0.000396842	0.00283482
12.8516	12.6602	0.000479301	0.00237307
12.852	12.6598	9.5849e-05	0.0031412
12.8525	12.6593	0.00025483	0.00427768
12.853	12.6588	-0.00134354	0.00360746
12.8534	12.6584	-0.000221185	0.00274264
12.8539	12.6579	0.000434285	0.00231095
12.8544	12.6574	0.000230289	0.00313965
12.8549	12.6569	6.79729e-05	0.00425448
12.8553	12.6565	-0.0013144	0.00362754
12.8558	12.656	-0.00034216	0.00270855
12.8563	12.6555	0.000606874	0.00240716
12.8567	12.655	0.000156934	0.00308639
12.8572	12.6545	3.06265e-05	0.00439461
12.8577	12.6541	-0.00120189	0.00366195
12.8582	12.6536	-0.000325752	0.00263972
12.8586	12.6531	0.000602541	0.0023335
12.8591	12.6527	0.000176873	0.00321979
12.8596	12.6522	-3.37934e-05	0.00429185
12.8601	12.6517	-0.00122617	0.00364434
12.8605	12.6512	-0.000327286	0.00263865
12.861	12.6508	0.000620679	0.00247174
12.8615	12.6503	0.000110652	0.00318291
12.8619	12.6498	-1.74565e-05	0.00420917
12.8624	12.6493	-0.00110446	0.00364982
12.8629	12.6489	-0.000326019	0.00270855
12.8634	12.6484	0.00072578	0.00248623
12.8638	12.6479	-7.98616e-06	0.00315038
12.8643	12.6475	-0.000104616	0.00439289
12.8648	12.647	-0.00111727	0.00362394
12.8652	12.6465	-0.000492473	0.00259677
12.8657	12.646	0.000858686	0.00246599
12.8662	12.6455	4.18982e-05	0.00328755
12.8667	12.6451	-0.000168037	0.00426554
12.8671	12.6446	-0.00101144	0.00360591
12.8676	12.6441	-0.000534153	0.00237102
12.8681	12.6436	0.000774327	0.00249557
12.8686	12.6432	4.92997e-05	0.00339073
12.869	12.6427	-0.000182038	0.0042889
12.8695	12.6423	-0.00100016	0.00351888
12.87	12.6418	-0.000492206	0.00246755
12.8704	12.6413	0.000874292	0.00256236
12.8709	12.6408	6.51016e-05	0.00332894
12.8714	12.6404	-0.000386105	0.00429185
12.8719	12.6399	-0.000934013	0.00360402
12.8723	12.6394	-0.000463331	0.00241478
12.8728	12.639	0.000936447	0.00255146
12.8733	12.6385	-4.32637e-05	0.00341408
12.8737	12.638	-0.000347493	0.00428423
12.8742	12.6376	-0.000853453	0.00358067
12.8747	12.6371	-0.000462528	0.00242052
12.8752	12.6366	0.000992395	0.0025622
12.8756	12.6361	4.44308e-05	0.00352183
12.8761	12.6357	-0.000401711	0.00419188
12.8766	12.6352	-0.00080817	0.00351732
12.8771	12.6347	-0.000577564	0.00229833
12.8775	12.6342	0.0010052	0.00264332
12.878	12.6338	-1.25876e-05	0.00361058
12.8785	12.6333	-0.000628714	0.00420155
12.8789	12.6328	-0.000786964	0.0036867
12.8794	12.6324	-0.00060544	0.00224663
12.8799	12.6319	0.00109416	0.00278033
12.8804	12.6314	1.04195e-05	0.00353552
12.8808	12.631	-0.000575031	0.00435847
12.8813	12.6305	-0.000701338	0.00349864
12.8818	12.63	-0.000510076	0.00227809
12.8822	12.6295	0.00109516	0.00268101
12.8827	12.6291	-3.40609e-05	0.00360435
12.8832	12.6286	-0.000682398	0.00418877
12.8837	12.6281	-0.000548956	0.00354223
12.8841	12.6277	-0.000556626	0.00228523
12.8846	12.6272	0.00089523	0.00276615
12.8851	12.6267	-8.67453e-05	0.00353552
12.8856	12.6262	-0.000677796	0.00427145
12.886	12.6257	-0.000489138	0.00337827
12.8865	12.6253	-0.000616712	0.00212675
12.887	12.6248	0.000953782	0.00271289
12.8874	12.6243	-8.74767e-05	0.00350954
12.8879	12.6238	-0.000756021	0.0041827
12.8884	12.6234	-0.000654789	0.00344415
12.8889	12.6229	-0.000573497	0.00207307
12.8893	12.6224	0.000973989	0.00276771
12.8898	12.622	-3.91973e-06	0.00366974
12.8903	12.6215	-0.000960819	0.00400694
12.8907	12.621	-0.000517014	0.00323397
12.8912	12.6205	-0.000560692	0.00214839
12.8917	12.62	0.000910836	0.00274001
12.8922	12.6196	-4.5065e-05	0.00369137
12.8926	12.6191	-0.000820708	0.00408978
12.8931	12.6186	-0.000544623	0.0033459
12.8936	12.6182	-0.000637917	0.00227203
12.8941	12.6177	0.000901366	0.0027305
12.8945	12.6172	1.80886e-05	0.00369449
12.895	12.6167	-0.000913539	0.00408618
12.8955	12.6163	-0.000476333	0.00333951
12.8959	12.6158	-0.000447458	0.00216165
12.8964	12.6153	0.000849484	0.00276411
12.8969	12.6148	0.000108583	0.00377733
12.8974	12.6144	-0.00108072	0.00405102
12.8978	12.6139	-0.000333153	0.00328363
12.8983	12.6134	-0.000477866	0.00217223
12.8988	12.613	0.00066136	0.0027501
