# 1304     AichiSR QXAFS
# Start     : 8.9544
# End       : 9.0544
# Dir       : Forward
# Points    : 300
# ScanTime  : 1.01549
# Date      : 13.04.23 23:37
# Ring Cur. : 1[mA]
12.7557	12.7562	0.000262035	0.00226908
12.7562	12.7558	0.000283972	0.00300264
12.7566	12.7553	0.00028424	0.0042285
12.7571	12.7548	-0.00131153	0.00367441
12.7576	12.7543	-0.000389904	0.00287063
12.7581	12.7539	0.000319785	0.00216288
12.7585	12.7534	0.000110652	0.00304451
12.759	12.7529	0.000176606	0.00425915
12.7595	12.7525	-0.00134427	0.00369137
12.7599	12.752	-0.000422649	0.00274543
12.7604	12.7515	0.000386006	0.00227154
12.7609	12.7511	0.000173806	0.00295077
12.7614	12.7506	9.0445e-05	0.00428578
12.7618	12.7501	-0.00130286	0.00355764
12.7623	12.7497	-0.000411913	0.00277222
12.7628	12.7492	0.000537586	0.00229071
12.7632	12.7487	0.000163069	0.0030727
12.7637	12.7483	0.000273503	0.00422753
12.7642	12.7478	-0.00137575	0.00372267
12.7647	12.7473	-0.000310949	0.00281909
12.7651	12.7468	0.000428418	0.00220632
12.7656	12.7464	0.000134194	0.00314367
12.7661	12.7459	0.000186076	0.00407716
12.7666	12.7454	-0.0014215	0.00373464
12.767	12.7449	-0.000321685	0.00262963
12.7675	12.7445	0.000553922	0.00239921
12.768	12.744	7.15043e-05	0.00317948
12.7684	12.7435	0.000182474	0.00425883
12.7689	12.743	-0.00135528	0.00349987
12.7694	12.7426	-0.000327553	0.00274903
12.7699	12.7421	0.000619145	0.00238504
12.7703	12.7417	3.31592e-05	0.00309729
12.7708	12.7412	8.89112e-05	0.00437732
12.7713	12.7407	-0.00131873	0.00365261
12.7717	12.7402	-0.000347225	0.00270699
12.7722	12.7398	0.000631148	0.00230096
12.7727	12.7393	3.72968e-05	0.00317948
12.7732	12.7388	8.35073e-05	0.00435085
12.7736	12.7384	-0.00126125	0.00372825
12.7741	12.7379	-0.000352897	0.0025717
12.7746	12.7374	0.000694836	0.00234751
12.7751	12.7369	1.24883e-05	0.0030895
12.7755	12.7364	-7.25485e-06	0.00425137
12.776	12.736	-0.00122544	0.00362738
12.7765	12.7355	-0.000395576	0.0026802
12.7769	12.735	0.000778928	0.00238815
12.7774	12.7345	3.00915e-05	0.00316735
12.7779	12.734	0.000101717	0.00425014
12.7784	12.7336	-0.00116075	0.00366351
12.7788	12.7331	-0.000301211	0.00257605
12.7793	12.7326	0.000554725	0.00242863
12.7798	12.7322	4.14193e-07	0.00327429
12.7802	12.7317	-5.88693e-05	0.00424031
12.7807	12.7312	-0.00109606	0.00361664
12.7812	12.7307	-0.000539754	0.00252516
12.7817	12.7303	0.000683832	0.00245681
12.7821	12.7298	2.7505e-06	0.00322758
12.7826	12.7293	-0.000137094	0.00427751
12.7831	12.7289	-0.00113341	0.00360386
12.7836	12.7284	-0.000400373	0.00247394
12.784	12.7279	0.000807803	0.00246009
12.7845	12.7275	2.11562e-05	0.00322602
12.785	12.727	-0.000242659	0.00426817
12.7854	12.7265	-0.00106332	0.00353477
12.7859	12.726	-0.000435187	0.00250132
12.7864	12.7256	0.000762859	0.00259301
12.7869	12.7251	2.29575e-05	0.00331246
12.7873	12.7246	-0.000333153	0.00424498
12.7878	12.7241	-0.000887928	0.00356559
12.7883	12.7237	-0.000565561	0.00241494
12.7887	12.7232	0.000882496	0.00251114
12.7892	12.7227	-8.41415e-05	0.003276
12.7897	12.7223	-0.00027947	0.00424466
12.7902	12.7218	-0.00094648	0.00356591
12.7906	12.7213	-0.000473532	0.00231841
12.7911	12.7209	0.000818807	0.00240839
12.7916	12.7204	-5.21991e-05	0.00329936
12.7921	12.7199	-0.000391973	0.00408666
12.7925	12.7195	-0.00102064	0.00351421
12.793	12.719	-0.0004738	0.00238053
12.7935	12.7185	0.000878893	0.00255506
12.7939	12.7181	9.15323e-06	0.00322618
12.7944	12.7176	-0.000414713	0.00426694
12.7949	12.7171	-0.000848584	0.00338032
12.7954	12.7166	-0.000465596	0.0022345
12.7958	12.7162	0.000983727	0.00248344
12.7963	12.7157	-0.00011175	0.00339326
12.7968	12.7152	-0.000483734	0.00425932
12.7972	12.7147	-0.000839649	0.00355174
12.7977	12.7142	-0.000506741	0.00233989
12.7982	12.7138	0.0010052	0.00260161
12.7987	12.7133	-2.25217e-05	0.0034376
12.7991	12.7128	-0.000435919	0.00433496
12.7996	12.7124	-0.000792101	0.00350986
12.8001	12.7119	-0.000663725	0.0022236
12.8006	12.7114	0.00105555	0.00257014
12.801	12.711	-0.00013169	0.0034929
12.8015	12.7105	-0.000522882	0.00422523
12.802	12.71	-0.000722009	0.00350594
12.8024	12.7095	-0.000668593	0.00225254
12.8029	12.7091	0.00104355	0.00257342
12.8034	12.7086	8.88573e-06	0.00342654
12.8039	12.7081	-0.000579365	0.00424777
12.8043	12.7077	-0.000750153	0.00353461
12.8048	12.7072	-0.000553023	0.00229613
12.8053	12.7067	0.00098906	0.00271198
12.8057	12.7062	-0.000107149	0.00335369
12.8062	12.7057	-0.000672464	0.00418131
12.8067	12.7053	-0.000853917	0.0034507
12.8072	12.7048	-0.000651454	0.00218124
12.8076	12.7043	0.000950715	0.00262619
12.8081	12.7038	-2.63918e-05	0.00355404
12.8086	12.7033	-0.000640182	0.00417771
12.8091	12.7029	-0.000651989	0.00348431
12.8095	12.7024	-0.000662458	0.00220369
12.81	12.702	0.00108849	0.00282048
12.8105	12.7015	-0.000208915	0.00366523
12.8109	12.701	-0.00054489	0.00425448
12.8114	12.7005	-0.000744285	0.00347684
12.8119	12.7001	-0.000660389	0.00232931
12.8124	12.6996	0.00107756	0.00263709
12.8128	12.6991	-3.47922e-05	0.0034471
12.8133	12.6987	-0.000594971	0.0041083
12.8138	12.6982	-0.000624916	0.00338171
12.8142	12.6977	-0.000520617	0.00219746
12.8147	12.6973	0.00100827	0.00270232
12.8152	12.6968	-8.18764e-05	0.00348431
12.8157	12.6963	-0.000693866	0.0042249
12.8161	12.6958	-0.000651187	0.00332631
12.8166	12.6954	-0.000594703	0.00209733
12.8171	12.6949	0.00101513	0.00267773
12.8176	12.6944	2.64889e-05	0.00359452
12.818	12.6939	-0.00084425	0.00415779
12.8185	12.6935	-0.000515213	0.00338343
12.819	12.693	-0.000537952	0.00218452
12.8194	12.6925	0.00106629	0.00272755
12.8199	12.6921	9.95573e-06	0.00359066
12.8204	12.6916	-0.000879795	0.00416574
12.8209	12.6911	-0.000498073	0.00328363
12.8213	12.6907	-0.000507276	0.00213486
12.8218	12.6902	0.000924373	0.00278746
12.8223	12.6897	-7.34049e-05	0.00359361
12.8227	12.6893	-0.000856717	0.00410019
12.8232	12.6888	-0.00066986	0.00347668
12.8237	12.6883	-0.000522882	0.00222918
12.8242	12.6879	0.00102587	0.00273313
12.8246	12.6874	-9.26131e-05	0.00373529
12.8251	12.6869	-0.000858322	0.0040756
12.8256	12.6864	-0.000563492	0.00335836
12.8261	12.6859	-0.000445656	0.00200564
12.8265	12.6855	0.000900634	0.002721
12.827	12.685	-2.15229e-05	0.0037325
12.8275	12.6845	-0.000973357	0.00412494
12.8279	12.684	-0.000548956	0.00334934
12.8284	12.6836	-0.0004766	0.00209905
12.8289	12.6831	0.000909837	0.00291497
12.8294	12.6826	2.28669e-06	0.00372841
12.8298	12.6822	-0.00112007	0.00407249
12.8303	12.6817	-0.000417317	0.00326822
12.8308	12.6812	-0.000431852	0.00211913
12.8312	12.6807	0.000760255	0.00279074
12.8317	12.6803	0.000102983	0.00387788
12.8322	12.6798	-0.00112314	0.00393671
12.8327	12.6793	-0.000441322	0.00320643
12.8331	12.6789	-0.000408845	0.00206979
12.8336	12.6784	0.000720911	0.00284244
12.8341	12.6779	5.77001e-05	0.00379364
12.8346	12.6774	-0.00100863	0.00396646
12.835	12.6769	-0.000438522	0.00324159
12.8355	12.6765	-0.000341357	0.00218157
12.836	12.676	0.000794534	0.00275992
12.8364	12.6755	3.11615e-05	0.00380937
12.8369	12.675	-0.00111573	0.00392925
12.8374	12.6745	-0.000418315	0.00315006
12.8379	12.6741	-0.000165968	0.00212863
12.8383	12.6736	0.000705841	0.00281597
12.8388	12.6731	-6.45235e-06	0.00388754
12.8393	12.6727	-0.00115561	0.00394031
12.8397	12.6722	-0.000334223	0.00314555
12.8402	12.6717	-0.000384839	0.00213937
12.8407	12.6713	0.000711708	0.00282188
12.8412	12.6708	7.81746e-05	0.00392024
12.8416	12.6703	-0.00111367	0.00390139
12.8421	12.6699	-0.000395843	0.00318275
12.8426	12.6694	-0.000145761	0.00212675
12.8431	12.6689	0.000681032	0.00293585
12.8435	12.6685	0.000106051	0.00398997
12.844	12.668	-0.00127398	0.00391106
12.8445	12.6675	-0.000346494	0.00315924
12.8449	12.6671	-0.000173174	0.00221426
12.8454	12.6666	0.000508176	0.00291857
12.8459	12.6661	0.000103982	0.00392614
12.8464	12.6656	-0.00133867	0.00394966
12.8468	12.6651	-0.000290474	0.00309884
12.8473	12.6647	-0.000129959	0.00214994
12.8478	12.6642	0.000523318	0.00288587
12.8482	12.6637	0.000124189	0.00395261
12.8487	12.6633	-0.00123844	0.0038614
12.8492	12.6628	-0.000342356	0.00304623
12.8497	12.6623	-0.00017617	0.002225
12.8501	12.6619	0.00045196	0.00289956
12.8506	12.6614	7.71758e-05	0.00400522
12.8511	12.6609	-0.00141536	0.00385141
12.8516	12.6604	-0.00038837	0.00296839
12.852	12.66	-8.36777e-05	0.00215322
12.8525	12.6595	0.000478302	0.00285522
12.853	12.659	0.000214951	0.00399497
12.8534	12.6586	-0.00137035	0.00380019
12.8539	12.6581	-0.000350025	0.00297805
12.8544	12.6576	7.81746e-05	0.00211741
12.8549	12.6572	0.000470098	0.00285661
12.8553	12.6567	0.00018761	0.00398654
12.8558	12.6562	-0.00151046	0.0038287
12.8563	12.6557	-0.000378704	0.00289087
12.8567	12.6552	0.000148462	0.00225941
12.8572	12.6548	0.000474432	0.00282998
12.8577	12.6543	0.000122923	0.00413788
12.8582	12.6538	-0.00147698	0.00377824
12.8586	12.6533	-0.000287674	0.00304172
12.8591	12.6529	3.60305e-05	0.00225409
12.8596	12.6524	0.000411546	0.00291996
12.8601	12.652	0.000118321	0.00416746
12.8605	12.6515	-0.00139596	0.00374914
12.861	12.651	-0.000235525	0.00292791
12.8615	12.6505	0.000137529	0.00212396
12.8619	12.65	0.000352994	0.002863
12.8624	12.6496	0.000137993	0.00411157
12.8629	12.6491	-0.00128725	0.00378028
12.8634	12.6486	-0.000400373	0.00281613
12.8638	12.6482	7.97084e-05	0.00223385
12.8643	12.6477	0.000300309	0.00295684
12.8648	12.6472	0.000192211	0.00424858
12.8652	12.6467	-0.00149692	0.00369513
12.8657	12.6462	-0.00030608	0.00293274
12.8662	12.6458	0.000244093	0.00230735
12.8667	12.6453	0.00036653	0.00297354
12.8671	12.6448	0.000129058	0.00421835
12.8676	12.6443	-0.00138315	0.00370367
12.8681	12.6439	-0.000374834	0.0028426
12.8686	12.6434	0.000268902	0.00226097
12.869	12.6429	0.000213417	0.00302722
12.8695	12.6425	0.000224885	0.0041673
12.87	12.642	-0.00141103	0.00363967
12.8704	12.6416	-0.000404244	0.00284121
12.8709	12.6411	0.000217751	0.00222328
12.8714	12.6406	0.000305713	0.00295765
12.8719	12.6401	0.000260234	0.00419951
12.8723	12.6397	-0.00146878	0.0037507
12.8728	12.6392	-0.000380238	0.00278607
12.8733	12.6387	0.000332323	0.00221845
12.8737	12.6383	0.000157201	0.00296404
12.8742	12.6378	0.000205481	0.00428546
12.8747	12.6373	-0.00138115	0.00361836
12.8752	12.6368	-0.00029941	0.00281146
12.8756	12.6364	0.000470366	0.0023525
12.8761	12.6359	9.60453e-05	0.002981
12.8766	12.6354	0.000272237	0.00424793
12.8771	12.6349	-0.00137161	0.00363393
12.8775	12.6345	-0.000388103	0.00273813
12.878	12.634	0.000419215	0.00232276
12.8785	12.6335	0.000127524	0.00303517
12.8789	12.6331	0.000108119	0.00431816
12.8794	12.6326	-0.00128499	0.00359952
12.8799	12.6321	-0.000381236	0.00274559
12.8804	12.6317	0.000396208	0.00230875
12.8808	12.6312	0.000107584	0.00308204
12.8813	12.6307	0.00013159	0.00415436
12.8818	12.6302	-0.00131026	0.00352806
12.8822	12.6298	-0.000297145	0.00264504
12.8827	12.6293	0.000534785	0.00220288
12.8832	12.6288	3.98294e-05	0.00313342
12.8837	12.6284	-2.10591e-05	0.00427284
12.8841	12.6279	-0.00124484	0.00359329
12.8846	12.6274	-0.000315015	0.00271338
12.8851	12.6269	0.000636284	0.00234971
12.8856	12.6265	7.0238e-05	0.00310663
12.886	12.626	1.48419e-06	0.00428997
12.8865	12.6255	-0.00114568	0.00360263
12.887	12.625	-0.00030328	0.00263849
12.8874	12.6245	0.000625013	0.00235594
12.8879	12.6241	0.000153599	0.00313776
12.8884	12.6236	-6.93385e-05	0.00431193
12.8889	12.6231	-0.00113341	0.00359361
12.8893	12.6226	-0.000371499	0.00255286
12.8898	12.6222	0.000722445	0.00239298
12.8903	12.6217	4.2362e-05	0.00320734
12.8907	12.6212	-1.99891e-05	0.00422367
12.8912	12.6208	-0.00118096	0.00362131
12.8917	12.6203	-0.000386569	0.00250213
12.8922	12.6198	0.00065082	0.00236168
12.8926	12.6193	-7.93438e-05	0.00312391
12.8931	12.6189	-0.000120757	0.00425604
12.8936	12.6184	-0.00101243	0.0035964
12.8941	12.6179	-0.000489138	0.00244436
12.8945	12.6175	0.000704307	0.00241724
12.895	12.617	-6.18485e-06	0.00317185
12.8955	12.6165	-0.000116352	0.00426178
12.8959	12.616	-0.00105131	0.00357976
12.8964	12.6156	-0.000561227	0.00251286
12.8969	12.6151	0.00076639	0.0024923
12.8974	12.6146	-2.87282e-05	0.00314915
12.8978	12.6141	-0.000236524	0.00423113
12.8983	12.6137	-0.00104111	0.00366367
12.8988	12.6132	-0.000457927	0.00245558
