# 1304     AichiSR QXAFS
# Start     : 8.9544
# End       : 9.0544
# Dir       : Forward
# Points    : 300
# ScanTime  : 1.01549
# Date      : 13.04.24 00:30
# Ring Cur. : 1[mA]
12.7557	12.7563	9.35127e-05	0.00389205
12.7562	12.7558	-0.00136501	0.0038156
12.7566	12.7553	-0.00037717	0.00302304
12.7571	12.7548	-0.000120489	0.00212519
12.7576	12.7544	0.000547056	0.00282671
12.7581	12.7539	8.91787e-05	0.00397596
12.7585	12.7534	-0.00140876	0.00381855
12.759	12.753	-0.000289939	0.00294691
12.7595	12.7525	-0.00020665	0.0022731
12.7599	12.752	0.000566728	0.00285473
12.7604	12.7516	0.00021035	0.00395014
12.7609	12.7511	-0.00138568	0.00378667
12.7614	12.7506	-0.000252397	0.00310056
12.7618	12.7501	-5.68005e-05	0.00223123
12.7623	12.7497	0.000426153	0.00285489
12.7628	12.7492	0.000232822	0.00411109
12.7632	12.7488	-0.00133794	0.00375053
12.7637	12.7483	-0.000339824	0.0029897
12.7642	12.7478	-0.000160832	0.00214887
12.7647	12.7474	0.000516647	0.00299764
12.7651	12.7469	0.000174073	0.00416156
12.7656	12.7464	-0.00147951	0.00379585
12.7661	12.7459	-0.000293809	0.00293913
12.7666	12.7455	6.79729e-05	0.00216117
12.767	12.745	0.000402076	0.00292479
12.7675	12.7445	0.000144128	0.0043116
12.768	12.744	-0.00143557	0.00384083
12.7684	12.7435	-0.000254929	0.00290783
12.7689	12.7431	8.45773e-05	0.00210356
12.7694	12.7426	0.000490305	0.00303877
12.7699	12.7422	0.000196813	0.00413133
12.7703	12.7417	-0.00148979	0.00377995
12.7708	12.7412	-0.000394506	0.00291046
12.7713	12.7407	0.00011652	0.00224041
12.7717	12.7403	0.000403413	0.00298863
12.7722	12.7398	0.000247161	0.00416714
12.7727	12.7393	-0.00141103	0.00379241
12.7732	12.7389	-0.000283804	0.00288464
12.7736	12.7384	0.000248427	0.00225302
12.7741	12.7379	0.000312116	0.00291234
12.7746	12.7375	0.00032312	0.00420933
12.7751	12.737	-0.00131747	0.00367129
12.7755	12.7365	-0.000381771	0.00290455
12.776	12.736	0.000271969	0.00216584
12.7765	12.7355	0.000182206	0.0029125
12.7769	12.735	0.000205748	0.00431193
12.7774	12.7346	-0.00138549	0.00372767
12.7779	12.7341	-0.000325752	0.00282531
12.7784	12.7336	0.000347393	0.00226966
12.7788	12.7331	0.000160001	0.00300763
12.7793	12.7327	0.000116252	0.00419844
12.7798	12.7322	-0.00141843	0.00367876
12.7802	12.7317	-0.000299945	0.00283761
12.7807	12.7313	0.000476233	0.00225254
12.7812	12.7308	7.66408e-05	0.00309245
12.7817	12.7303	0.00016767	0.00435863
12.7821	12.7298	-0.00142943	0.00373996
12.7826	12.7294	-0.000376635	0.00276943
12.7831	12.7289	0.00043095	0.00227498
12.7836	12.7284	0.000191141	0.00302583
12.784	12.728	0.000284507	0.00420155
12.7845	12.7275	-0.00131693	0.00360419
12.785	12.727	-0.000355697	0.00256687
12.7854	12.7265	0.000450961	0.00232899
12.7859	12.7261	8.2241e-05	0.00313449
12.7864	12.7256	0.000118054	0.00424933
12.7869	12.7251	-0.00134887	0.00359656
12.7873	12.7246	-0.000313749	0.00279868
12.7878	12.7242	0.000539387	0.0023153
12.7883	12.7237	0.000140329	0.00301337
12.7887	12.7232	-1.81878e-05	0.00431348
12.7892	12.7228	-0.00131566	0.00361492
12.7897	12.7223	-0.000376635	0.00274108
12.7902	12.7218	0.000576466	0.00230064
12.7906	12.7214	4.2897e-05	0.00306787
12.7911	12.7209	-2.79257e-05	0.00427596
12.7916	12.7204	-0.00127065	0.00368407
12.7921	12.72	-0.000433118	0.00258432
12.7925	12.7195	0.000620144	0.0023262
12.793	12.719	1.68223e-05	0.00326355
12.7935	12.7186	-4.9934e-05	0.00436626
12.7939	12.7181	-0.00112774	0.00343465
12.7944	12.7176	-0.000366968	0.00260595
12.7949	12.7172	0.000707571	0.00242551
12.7954	12.7167	9.68478e-05	0.0031848
12.7958	12.7162	-9.72145e-05	0.00420483
12.7963	12.7157	-0.00115028	0.00366507
12.7968	12.7152	-0.000423916	0.00254335
12.7972	12.7148	0.000597137	0.00250647
12.7977	12.7143	1.22208e-05	0.00324363
12.7982	12.7138	-0.000146296	0.00429824
12.7987	12.7133	-0.00108433	0.00357649
12.7991	12.7129	-0.000408577	0.00256564
12.7996	12.7124	0.000796603	0.00248468
12.8001	12.712	-3.78598e-05	0.00329281
12.8006	12.7115	-0.000153163	0.0042249
12.801	12.711	-0.00119216	0.00359812
12.8015	12.7105	-0.000470197	0.00252966
12.802	12.71	0.000634483	0.00246165
12.8024	12.7096	6.62061e-06	0.00332099
12.8029	12.7091	-0.000195378	0.00423162
12.8034	12.7087	-0.00104825	0.00348414
12.8039	12.7082	-0.000546424	0.00246428
12.8043	12.7077	0.000840281	0.00252671
12.8048	12.7072	-5.86018e-05	0.00337581
12.8053	12.7067	-0.000185373	0.00418598
12.8057	12.7063	-0.0010053	0.00353461
12.8062	12.7058	-0.00044826	0.0024274
12.8067	12.7053	0.000784796	0.00255957
12.8072	12.7048	-0.000146296	0.00340883
12.8076	12.7043	-0.0003677	0.0042649
12.8081	12.7039	-0.000993761	0.00346267
12.8086	12.7034	-0.000419047	0.00233038
12.8091	12.7029	0.000875826	0.00257154
12.8095	12.7025	1.22208e-05	0.00328862
12.81	12.702	-0.000360298	0.00414034
12.8105	12.7015	-0.000925542	0.00349692
12.8109	12.701	-0.000603442	0.00214453
12.8114	12.7006	0.000836678	0.0026634
12.8119	12.7001	-4.38354e-06	0.00345022
12.8124	12.6996	-0.000539754	0.00417803
12.8128	12.6992	-0.000794366	0.00353756
12.8133	12.6987	-0.000487337	0.00236152
12.8138	12.6983	0.000994999	0.00262979
12.8142	12.6978	-7.98076e-05	0.00337892
12.8147	12.6973	-0.00047273	0.00420015
12.8152	12.6968	-0.000840647	0.00354052
12.8157	12.6964	-0.000556626	0.0022155
12.8161	12.6959	0.000957385	0.00259366
12.8166	12.6954	-7.11398e-05	0.00335245
12.8171	12.6949	-0.000545086	0.00418238
12.8176	12.6944	-0.000856984	0.00347513
12.818	12.694	-0.000591903	0.00227122
12.8185	12.6935	0.000940513	0.00257793
12.819	12.693	-0.000122023	0.00347545
12.8194	12.6926	-0.000591101	0.00417288
12.8199	12.6921	-0.000776763	0.00346611
12.8204	12.6917	-0.000553558	0.00221459
12.8209	12.6912	0.000996194	0.00264783
12.8213	12.6907	1.5556e-05	0.0034857
12.8218	12.6902	-0.000759356	0.00415919
12.8223	12.6898	-0.000712806	0.00343277
12.8227	12.6893	-0.000657857	0.00212847
12.8232	12.6888	0.00103174	0.00276443
12.8237	12.6884	-8.13414e-05	0.00368686
12.8242	12.6879	-0.000738417	0.00419704
12.8246	12.6874	-0.000686197	0.00349037
12.8251	12.6869	-0.00058937	0.00216911
12.8256	12.6865	0.000986527	0.0026729
12.8261	12.686	-0.000160368	0.00352618
12.8265	12.6855	-0.000811773	0.00397784
12.827	12.685	-0.000616177	0.00341441
12.8275	12.6845	-0.000642519	0.00217673
12.8279	12.6841	0.00103614	0.00258883
12.8284	12.6836	-0.000214783	0.00364917
12.8289	12.6831	-0.000859321	0.00408494
12.8294	12.6827	-0.000560496	0.00343121
12.8298	12.6822	-0.000686732	0.00219058
12.8303	12.6817	0.00086302	0.0027523
12.8308	12.6813	-4.70627e-05	0.00353601
12.8312	12.6808	-0.000904532	0.00409133
12.8317	12.6803	-0.000583967	0.00333189
12.8322	12.6798	-0.000706939	0.00209594
12.8327	12.6794	0.000928243	0.00284523
12.8331	12.6789	-4.5065e-05	0.00366802
12.8336	12.6784	-0.000851919	0.00405552
12.8341	12.678	-0.000507276	0.00332443
12.8346	12.6775	-0.000477866	0.00222827
12.835	12.677	0.000941245	0.00276927
12.8355	12.6765	-3.96611e-05	0.0036604
12.836	12.676	-0.000797968	0.00398702
12.8364	12.6756	-0.000530016	0.00329968
12.8369	12.6751	-0.000591368	0.00221861
12.8374	12.6746	0.000913636	0.00273952
12.8379	12.6741	2.88252e-05	0.00373153
12.8383	12.6736	-0.00106819	0.0041251
12.8388	12.6732	-0.000575031	0.00330763
12.8393	12.6727	-0.000452059	0.00214044
12.8397	12.6722	0.000914171	0.00278156
12.8402	12.6718	-0.000146029	0.00368638
12.8407	12.6713	-0.000949815	0.00397859
12.8412	12.6708	-0.000461262	0.00324798
12.8416	12.6704	-0.000429319	0.00214404
12.8421	12.6699	0.000715507	0.00273845
12.8426	12.6694	-7.98616e-06	0.00380846
12.8431	12.669	-0.00113341	0.00389345
12.8435	12.6685	-0.000361029	0.0030909
12.844	12.6681	-0.000410914	0.00220148
12.8445	12.6676	0.000726779	0.00274935
12.8449	12.6671	-2.15229e-05	0.00381125
12.8454	12.6666	-0.00104851	0.00392475
12.8459	12.6661	-0.000430586	0.0031689
12.8464	12.6657	-0.000365898	0.00206169
12.8468	12.6652	0.000588736	0.00275509
12.8473	12.6647	-4.04636e-05	0.00394171
12.8478	12.6642	-0.00119856	0.00398686
12.8482	12.6638	-0.000414249	0.00318275
12.8487	12.6633	-0.000328088	0.00223139
12.8492	12.6628	0.000605073	0.00279836
12.8497	12.6624	0.000142595	0.00392319
12.8501	12.6619	-0.00117689	0.00391352
12.8506	12.6615	-0.000360762	0.00303812
12.8511	12.661	-0.000137629	0.00219418
12.8516	12.6605	0.000643418	0.00282703
12.852	12.66	-3.58622e-05	0.0039576
12.8525	12.6596	-0.00131026	0.00386386
12.853	12.6591	-0.000251594	0.00310024
12.8534	12.6586	-0.000220187	0.00211478
12.8539	12.6582	0.000696103	0.00272412
12.8544	12.6577	-6.71985e-06	0.00398842
12.8549	12.6572	-0.00126405	0.00385952
12.8553	12.6567	-0.000416247	0.0030509
12.8558	12.6563	-0.000104152	0.00215666
12.8563	12.6558	0.000603807	0.00285506
12.8567	12.6553	0.000165138	0.00399185
12.8572	12.6548	-0.00127678	0.00387927
12.8577	12.6543	-0.000331887	0.00307925
12.8582	12.6539	-9.13468e-05	0.00210635
12.8586	12.6534	0.000501042	0.00293258
12.8591	12.6529	0.000153064	0.00405585
12.8596	12.6525	-0.00139442	0.00367441
12.8601	12.652	-0.000344158	0.00299845
12.8605	12.6515	1.73573e-05	0.00215649
12.861	12.651	0.000408211	0.00279885
12.8615	12.6506	0.000128059	0.00412494
12.8619	12.6501	-0.00143657	0.00380379
12.8624	12.6496	-0.000282805	0.00297461
12.8629	12.6491	9.0445e-05	0.00215838
12.8634	12.6487	0.000397474	0.00290611
12.8638	12.6482	0.0002587	0.00401316
12.8643	12.6477	-0.00142176	0.00380454
12.8648	12.6473	-0.000420117	0.00299142
12.8652	12.6468	5.33662e-05	0.00213298
12.8657	12.6463	0.000429417	0.00288276
12.8662	12.6458	0.000134658	0.00424375
12.8667	12.6453	-0.00156901	0.00375709
12.8671	12.6449	-0.000303012	0.00281892
12.8676	12.6444	0.00019881	0.00232308
12.8681	12.6439	0.000291106	0.00284851
12.8686	12.6434	0.000275037	0.0040697
12.869	12.643	-0.00144991	0.00368622
12.8695	12.6425	-0.000364365	0.00297322
12.87	12.6421	0.000156934	0.00213937
12.8704	12.6416	0.000265834	0.0028535
12.8709	12.6411	0.000153064	0.00419983
12.8714	12.6406	-0.00153373	0.00365057
12.8719	12.6402	-0.000277936	0.00293274
12.8723	12.6397	0.000201878	0.00225802
12.8728	12.6392	0.000249694	0.00292791
12.8733	12.6388	0.000233892	0.0041069
12.8737	12.6383	-0.00150232	0.00366179
12.8742	12.6378	-0.00030608	0.00281909
12.8747	12.6374	0.000209351	0.00228711
12.8752	12.6369	0.000212882	0.00303313
12.8756	12.6364	0.000282706	0.00426833
12.8761	12.6359	-0.00148772	0.00361229
12.8766	12.6355	-0.000314284	0.00273797
12.8771	12.635	0.000390073	0.00231326
12.8775	12.6345	0.000136192	0.0028812
12.878	12.634	0.000186344	0.00409691
12.8785	12.6336	-0.00137422	0.00368654
12.8789	12.6331	-0.000322684	0.00276738
12.8794	12.6326	0.000411813	0.00234144
12.8799	12.6322	8.02434e-05	0.00294176
12.8804	12.6317	9.01775e-05	0.00426989
12.8808	12.6312	-0.00138135	0.00363221
12.8813	12.6307	-0.00035336	0.00280695
12.8818	12.6303	0.000489306	0.00221829
12.8822	12.6298	-1.38539e-05	0.00310196
12.8827	12.6293	0.000197348	0.00432004
12.8832	12.6289	-0.0012351	0.00362647
12.8837	12.6284	-0.000332957	0.00273813
12.8841	12.6279	0.000471097	0.00227761
12.8846	12.6275	0.000169472	0.0029933
12.8851	12.627	6.89717e-05	0.00433947
12.8856	12.6265	-0.00136681	0.00361197
12.886	12.626	-0.000330621	0.00266946
12.8865	12.6255	0.000488236	0.00235406
12.887	12.6251	4.97635e-05	0.00316686
12.8874	12.6246	6.46378e-05	0.00420622
12.8879	12.6241	-0.00135988	0.00355748
12.8884	12.6236	-0.000425984	0.00261202
12.8889	12.6232	0.000535517	0.0023634
12.8893	12.6227	-2.17904e-05	0.00313342
12.8898	12.6222	1.65548e-05	0.00417025
12.8903	12.6218	-0.00126071	0.00344104
12.8907	12.6213	-0.000372301	0.00249262
12.8912	12.6208	0.000651355	0.00231965
12.8917	12.6203	-3.91973e-06	0.00305197
12.8922	12.6198	-0.000125358	0.0040661
12.8926	12.6194	-0.00113621	0.00362131
12.8931	12.6189	-0.000341357	0.00245042
12.8936	12.6185	0.000570063	0.00239781
12.8941	12.618	-3.07258e-05	0.00310228
12.8945	12.6175	-0.000160101	0.00421449
12.895	12.617	-0.00119856	0.00360123
12.8955	12.6166	-0.000341357	0.00241773
12.8959	12.6161	0.000628348	0.00238036
12.8964	12.6156	3.72968e-05	0.00316267
12.8969	12.6151	-0.000110484	0.00427612
12.8974	12.6147	-0.00105131	0.0035483
12.8978	12.6142	-0.000458194	0.00247566
12.8983	12.6137	0.000748787	0.00248747
12.8988	12.6132	-2.30567e-05	0.00315505
