# 1304     AichiSR QXAFS
# Start     : 8.9544
# End       : 9.0544
# Dir       : Forward
# Points    : 300
# ScanTime  : 1.01549
# Date      : 13.04.23 22:58
# Ring Cur. : 1[mA]
12.7557	12.7561	-0.00060544	0.00220632
12.7562	12.7556	0.00106629	0.00266823
12.7566	12.7551	-3.71285e-05	0.00355093
12.7571	12.7546	-0.000830981	0.00412494
12.7576	12.7542	-0.000733816	0.00342391
12.7581	12.7537	-0.000671929	0.00212101
12.7585	12.7532	0.000951981	0.00274591
12.759	12.7528	-5.62655e-05	0.00360902
12.7595	12.7523	-0.00065272	0.00400103
12.7599	12.7518	-0.000593437	0.00341473
12.7604	12.7514	-0.000675728	0.00203989
12.7609	12.7509	0.00101053	0.0027305
12.7614	12.7504	1.34872e-05	0.00361804
12.7618	12.7499	-0.000770092	0.00415968
12.7623	12.7495	-0.000614375	0.0033663
12.7628	12.749	-0.000524148	0.00220164
12.7632	12.7486	0.00106935	0.00271445
12.7637	12.7481	-5.30016e-05	0.00358894
12.7642	12.7476	-0.000861122	0.00409461
12.7647	12.7471	-0.000525949	0.00344104
12.7651	12.7467	-0.000523417	0.00210463
12.7656	12.7462	0.000956386	0.00267757
12.7661	12.7457	-3.65223e-06	0.00353322
12.7666	12.7452	-0.000888195	0.00409536
12.767	12.7448	-0.000487604	0.00328674
12.7675	12.7443	-0.00050601	0.002083
12.768	12.7438	0.000903167	0.00272674
12.7684	12.7433	1.14183e-05	0.00373201
12.7689	12.7429	-0.000962086	0.00415903
12.7694	12.7424	-0.000519814	0.0032715
12.7699	12.7419	-0.000484537	0.00202014
12.7703	12.7415	0.000830347	0.00278934
12.7708	12.741	-1.87228e-05	0.00365122
12.7713	12.7405	-0.00106638	0.00408773
12.7717	12.74	-0.000408845	0.00321357
12.7722	12.7396	-0.000351292	0.00215182
12.7727	12.7391	0.000832344	0.00279401
12.7732	12.7386	-4.18723e-06	0.00370399
12.7736	12.7382	-0.00100837	0.00391868
12.7741	12.7377	-0.00055049	0.00312515
12.7746	12.7372	-0.000478134	0.00217035
12.7751	12.7367	0.000785795	0.00286252
12.7755	12.7363	8.53086e-05	0.00382092
12.776	12.7358	-0.00116788	0.00402873
12.7765	12.7353	-0.000389708	0.00313809
12.7769	12.7348	-0.000246261	0.00216321
12.7774	12.7343	0.000739852	0.00281737
12.7779	12.7339	-1.41214e-05	0.00379568
12.7784	12.7334	-0.00115922	0.00401316
12.7788	12.7329	-0.00047273	0.00326248
12.7793	12.7325	-0.000276938	0.00205734
12.7798	12.732	0.000770261	0.0028054
12.7802	12.7315	-1.7189e-05	0.00387771
12.7807	12.731	-0.00121137	0.0039227
12.7812	12.7306	-0.000468931	0.0030364
12.7817	12.7301	-0.000130691	0.00215354
12.7821	12.7296	0.000604342	0.00291266
12.7826	12.7292	2.85577e-05	0.00404881
12.7831	12.7287	-0.001307	0.00385361
12.7836	12.7282	-0.000465061	0.00308671
12.784	12.7278	-0.000170837	0.00226048
12.7845	12.7273	0.000607606	0.00290611
12.785	12.7268	0.000232625	0.00398702
12.7854	12.7263	-0.00132874	0.00390155
12.7859	12.7259	-0.0003705	0.00302567
12.7864	12.7254	-0.000145494	0.00214372
12.7869	12.7249	0.000492374	0.00279697
12.7873	12.7244	0.000111651	0.00400833
12.7878	12.7239	-0.00144144	0.0038855
12.7883	12.7235	-0.000395576	0.00307721
12.7887	12.723	-3.30621e-05	0.00230703
12.7892	12.7226	0.000435355	0.00285908
12.7897	12.7221	0.000136727	0.00401939
12.7902	12.7216	-0.0013356	0.00381732
12.7906	12.7212	-0.000252397	0.00301445
12.7911	12.7207	9.15323e-06	0.00221115
12.7916	12.7202	0.000419215	0.0028739
12.7921	12.7197	0.000122388	0.00412559
12.7925	12.7193	-0.00146011	0.00376782
12.793	12.7188	-0.000395843	0.00306754
12.7935	12.7184	-4.91854e-06	0.00220025
12.7939	12.7179	0.000400274	0.0029511
12.7944	12.7174	0.000195279	0.00408323
12.7949	12.7169	-0.00146698	0.00386247
12.7954	12.7165	-0.000293007	0.00290906
12.7958	12.716	0.00013546	0.0021864
12.7963	12.7155	0.000292444	0.00290922
12.7968	12.715	0.000251227	0.00415624
12.7972	12.7145	-0.00138522	0.00367376
12.7977	12.7141	-0.000410111	0.00297338
12.7982	12.7136	0.000144396	0.00225597
12.7987	12.7131	0.000364533	0.00294036
12.7991	12.7127	0.000170203	0.00405987
12.7996	12.7122	-0.00146444	0.00371489
12.8001	12.7117	-0.000306811	0.00298363
12.8006	12.7113	0.000141328	0.00227777
12.801	12.7108	0.000278836	0.00285522
12.8015	12.7103	0.000315183	0.00416418
12.802	12.7098	-0.00136221	0.00368933
12.8024	12.7094	-0.000307614	0.00278639
12.8029	12.7089	0.00031645	0.00212536
12.8034	12.7084	0.000332787	0.00289709
12.8039	12.708	0.00032872	0.00419188
12.8043	12.7075	-0.00140923	0.00365573
12.8048	12.707	-0.000433386	0.0028077
12.8053	12.7065	0.000382939	0.00225721
12.8057	12.706	0.000232625	0.00292775
12.8062	12.7056	0.000114986	0.00419532
12.8067	12.7051	-0.00147238	0.00364123
12.8072	12.7046	-0.000343159	0.00276009
12.8076	12.7041	0.000297242	0.00224712
12.8081	12.7036	0.000161732	0.00303533
12.8086	12.7032	0.000204214	0.00421368
12.8091	12.7027	-0.00140896	0.0036182
12.8095	12.7022	-0.000307079	0.00267897
12.81	12.7018	0.000450159	0.00224508
12.8105	12.7013	0.000221086	0.00216739
12.8109	12.7008	0.000177337	0.00425088
12.8114	12.7003	-0.00132667	0.00372981
12.8119	12.6999	-0.000269268	0.00286595
12.8124	12.6994	0.000439422	0.00227138
12.8128	12.699	0.000101717	0.00307737
12.8133	12.6985	0.000137993	0.00416885
12.8138	12.698	-0.00124484	0.00356494
12.8142	12.6976	-0.000367165	0.00275386
12.8147	12.6971	0.000553655	0.00237725
12.8152	12.6966	0.000113987	0.00319086
12.8157	12.6961	-8.25365e-06	0.00418566
12.8161	12.6957	-0.00125891	0.00363253
12.8166	12.6952	-0.000356963	0.00256843
12.8171	12.6947	0.000614811	0.00243936
12.8176	12.6942	0.000118054	0.00303828
12.818	12.6937	1.11508e-05	0.00431177
12.8185	12.6933	-0.00119756	0.00360247
12.819	12.6928	-0.000342624	0.00262743
12.8194	12.6924	0.000697102	0.00235873
12.8199	12.6919	5.69688e-05	0.00314244
12.8204	12.6914	-0.000200978	0.00415205
12.8209	12.691	-0.00108559	0.00362738
12.8213	12.6905	-0.000483734	0.00256204
12.8218	12.69	0.000678428	0.00236544
12.8223	12.6895	2.60251e-05	0.00323757
12.8227	12.6891	-2.35917e-05	0.00428063
12.8232	12.6886	-0.00116762	0.00355297
12.8237	12.6882	-0.000355429	0.0025717
12.8242	12.6877	0.000687631	0.00244141
12.8246	12.6872	-3.7396e-05	0.0031426
12.8251	12.6867	-0.00017617	0.00415001
12.8256	12.6862	-0.00109833	0.00347094
12.8261	12.6858	-0.000475601	0.00236152
12.8265	12.6853	0.000813207	0.00246895
12.827	12.6848	-3.65223e-06	0.00334902
12.8275	12.6843	-0.000269268	0.00416869
12.8279	12.6838	-0.000996365	0.00358255
12.8284	12.6834	-0.000413179	0.00242895
12.8289	12.6829	0.000817809	0.0024646
12.8294	12.6824	-3.37934e-05	0.00331165
12.8298	12.682	-0.00020665	0.00426334
12.8303	12.6815	-0.000893064	0.0034049
12.8308	12.681	-0.000393239	0.00252032
12.8312	12.6805	0.00084515	0.0025295
12.8317	12.6801	-2.81932e-05	0.00329813
12.8322	12.6796	-0.00039884	0.00419844
12.8327	12.6791	-0.0008992	0.00358116
12.8331	12.6787	-0.000491938	0.00241912
12.8336	12.6782	0.000975523	0.00256531
12.8341	12.6777	-6.5272e-05	0.00345972
12.8346	12.6773	-0.000343623	0.00422941
12.835	12.6768	-0.000840647	0.00363082
12.8355	12.6763	-0.000519012	0.00235283
12.836	12.6758	0.000965054	0.00257916
12.8364	12.6753	-1.64577e-05	0.00341022
12.8369	12.6748	-0.000447458	0.00417959
12.8374	12.6744	-0.000800768	0.0034689
12.8379	12.6739	-0.000575763	0.00227638
12.8383	12.6734	0.000970191	0.0026416
12.8388	12.673	-0.000110484	0.00342375
12.8393	12.6725	-0.000485268	0.0042059
12.8397	12.672	-0.000825577	0.00361976
12.8402	12.6716	-0.000468931	0.00222623
12.8407	12.6711	0.00102614	0.00264332
12.8412	12.6706	-4.27287e-05	0.00348602
12.8416	12.6701	-0.000493739	0.00423564
12.8421	12.6697	-0.000833246	0.00339728
12.8426	12.6692	-0.000598038	0.00220787
12.8431	12.6688	0.00102207	0.00267086
12.8435	12.6683	-0.000164167	0.00356591
12.844	12.6678	-0.000569163	0.00422195
12.8445	12.6673	-0.000634047	0.00351372
12.8449	12.6669	-0.000595773	0.00221206
12.8454	12.6664	0.00117365	0.00271182
12.8459	12.6659	-0.000135025	0.00357182
12.8464	12.6654	-0.000606974	0.00418893
12.8468	12.665	-0.000616444	0.00347357
12.8473	12.6645	-0.000613109	0.00214699
12.8478	12.664	0.00100593	0.00266152
12.8482	12.6635	-1.23201e-05	0.00348807
12.8487	12.6631	-0.000643785	0.00425604
12.8492	12.6626	-0.000622847	0.0035315
12.8497	12.6622	-0.000671126	0.00215821
12.8501	12.6617	0.000963788	0.00276755
12.8506	12.6612	-8.95455e-05	0.00358583
12.8511	12.6607	-0.000774426	0.00420294
12.8516	12.6603	-0.000630783	0.00343465
12.852	12.6598	-0.000576298	0.00226392
12.8525	12.6593	0.000959918	0.00266512
12.853	12.6589	-2.79257e-05	0.00364982
12.8534	12.6584	-0.000834512	0.00419876
12.8539	12.6579	-0.000513411	0.00334344
12.8544	12.6575	-0.000646585	0.00213781
12.8549	12.657	0.00104328	0.00270822
12.8553	12.6565	-4.22649e-05	0.0036386
12.8558	12.656	-0.000812771	0.00420885
12.8563	12.6555	-0.000561762	0.00340367
12.8567	12.6551	-0.000628982	0.00214125
12.8572	12.6546	0.000989595	0.00273018
12.8577	12.6541	-0.000121755	0.00373153
12.8582	12.6536	-0.000841914	0.00403529
12.8586	12.6532	-0.000662458	0.00338687
12.8591	12.6527	-0.000572962	0.00225941
12.8596	12.6522	0.000900634	0.00281704
12.8601	12.6518	5.81811e-06	0.00382945
12.8605	12.6513	-0.00102037	0.00415017
12.861	12.6508	-0.000481201	0.00326527
12.8615	12.6503	-0.000403441	0.00213158
12.8619	12.6499	0.000788863	0.0028018
12.8624	12.6494	4.82297e-05	0.00367924
12.8629	12.6489	-0.00104265	0.00406347
12.8634	12.6485	-0.000466862	0.00330263
12.8638	12.648	-0.000376635	0.00211897
12.8643	12.6475	0.000747985	0.00268085
12.8648	12.647	-3.25271e-05	0.00374774
12.8652	12.6465	-0.00108813	0.00401037
12.8657	12.6461	-0.000466131	0.00315833
12.8662	12.6456	-0.000313481	0.00223622
12.8667	12.6451	0.000769191	0.0027224
12.8671	12.6446	0.00011092	0.00383633
12.8676	12.6441	-0.00127372	0.00394794
12.8681	12.6437	-0.000541555	0.00320144
12.8686	12.6432	-0.000280005	0.00208799
12.869	12.6428	0.000753121	0.00293848
12.8695	12.6423	0.000107317	0.00382043
12.87	12.6418	-0.00116942	0.00386419
12.8704	12.6414	-0.000491671	0.00322602
12.8709	12.6409	-0.000316282	0.00214608
12.8714	12.6404	0.000638549	0.00271633
12.8719	12.6399	8.20447e-05	0.00392523
12.8723	12.6395	-0.00128679	0.00392942
12.8728	12.639	-0.000294273	0.00300666
12.8733	12.6385	-0.000147295	0.00213921
12.8737	12.6381	0.000524049	0.00274264
12.8742	12.6376	0.000215753	0.00387304
12.8747	12.6371	-0.00129419	0.00394761
12.8752	12.6367	-0.000346494	0.00311892
12.8756	12.6362	-0.000119223	0.00217673
12.8761	12.6357	0.000690699	0.00281098
12.8766	12.6352	0.000102448	0.00392056
12.8771	12.6348	-0.00132	0.00386993
12.8775	12.6343	-0.000304011	0.00308048
12.878	12.6338	-0.000140161	0.00211741
12.8785	12.6333	0.000493908	0.00286064
12.8789	12.6329	0.000147463	0.00407405
12.8794	12.6324	-0.00127759	0.00389049
12.8799	12.6319	-0.000458194	0.00309278
12.8804	12.6315	-3.40609e-05	0.00214871
12.8808	12.631	0.000399008	0.00285613
12.8813	12.6305	0.000161	0.00395851
12.8818	12.63	-0.0014279	0.00374152
12.8822	12.6296	-0.000284339	0.00300903
12.8827	12.6291	-1.69215e-05	0.002161
12.8832	12.6287	0.00045476	0.00282048
12.8837	12.6282	0.000192943	0.00415951
12.8841	12.6277	-0.00135148	0.00382215
12.8846	12.6272	-0.000334491	0.0029788
12.8851	12.6267	1.90874e-05	0.00209594
12.8856	12.6263	0.00041588	0.00294004
12.886	12.6258	0.000149996	0.004077
12.8865	12.6253	-0.00145064	0.00386124
12.887	12.6248	-0.000219652	0.00288555
12.8874	12.6243	9.5314e-05	0.00211897
12.8879	12.6239	0.000457293	0.002903
12.8884	12.6234	0.000200879	0.0040843
12.8889	12.6229	-0.00157415	0.00371661
12.8893	12.6225	-0.000279006	0.00281377
12.8898	12.622	0.000121656	0.00219681
12.8903	12.6215	0.000331253	0.00290643
12.8907	12.621	0.000241828	0.00414115
12.8912	12.6206	-0.00145424	0.00370662
12.8917	12.6201	-0.000326554	0.00296978
12.8922	12.6196	0.000152065	0.00218141
12.8926	12.6192	0.000244093	0.00305058
12.8931	12.6187	0.0002671	0.00424842
12.8936	12.6182	-0.0014113	0.00366179
12.8941	12.6177	-0.000345228	0.00283933
12.8945	12.6173	0.000266102	0.0022068
12.895	12.6168	0.00025483	0.00303206
12.8955	12.6163	0.000176338	0.00425293
12.8959	12.6158	-0.00144704	0.00366523
12.8964	12.6154	-0.000376635	0.00277565
12.8969	12.6149	0.000402611	0.0022513
12.8974	12.6144	0.000168669	0.00295158
12.8978	12.6139	0.000237691	0.00411141
12.8983	12.6135	-0.00145777	0.00363393
12.8988	12.613	-0.000426983	0.0026416
