# 1304     AichiSR QXAFS
# Start     : 8.9544
# End       : 9.0544
# Dir       : Backward
# Points    : 300
# ScanTime  : 1.01549
# Date      : 13.04.23 23:06
# Ring Cur. : 0.9[mA]
12.7557	12.6122	0.000237423	0.00414566
12.7562	12.6127	-0.00147698	0.00367441
12.7566	12.6131	-0.000389173	0.00286719
12.7571	12.6136	0.000113185	0.00216772
12.7576	12.6141	0.000354527	0.00292463
12.7581	12.6145	0.00012212	0.0042227
12.7585	12.615	-0.00133534	0.00376299
12.759	12.6155	-0.000412448	0.00285957
12.7595	12.616	0.000168669	0.00217706
12.7599	12.6165	0.000213417	0.00289865
12.7604	12.6169	0.00014593	0.00415017
12.7609	12.6174	-0.00138829	0.0036954
12.7614	12.6179	-0.0003733	0.00290488
12.7618	12.6184	0.000318715	0.00230891
12.7623	12.6188	0.000204482	0.00301895
12.7628	12.6193	0.00022262	0.00414969
12.7632	12.6197	-0.00138369	0.00366335
12.7637	12.6202	-0.000353895	0.00283154
12.7642	12.6207	0.000291106	0.00231514
12.7647	12.6212	0.000143861	0.00295593
12.7651	12.6217	0.000184275	0.0042372
12.7656	12.6221	-0.00144577	0.00360591
12.7661	12.6226	-0.000353895	0.00266184
12.7666	12.6231	0.000284507	0.00239733
12.767	12.6235	0.000216217	0.00308188
12.7675	12.624	0.000167135	0.00412854
12.768	12.6245	-0.00144884	0.00362893
12.7684	12.625	-0.000376368	0.00281114
12.7689	12.6254	0.000433019	0.00223311
12.7694	12.6259	0.000149265	0.0029729
12.7699	12.6264	9.71153e-05	0.00423408
12.7703	12.6269	-0.00135834	0.00356043
12.7708	12.6273	-0.000482735	0.00266667
12.7713	12.6278	0.000385204	0.00233505
12.7717	12.6283	1.5021e-05	0.00303485
12.7722	12.6288	7.12368e-05	0.00426801
12.7727	12.6292	-0.00134634	0.00356714
12.7732	12.6297	-0.000431388	0.00267585
12.7736	12.6302	0.000466228	0.00236217
12.7741	12.6306	-1.58342e-06	0.00305697
12.7746	12.6311	0.000132589	0.00426554
12.7751	12.6316	-0.00135681	0.00367597
12.7755	12.6321	-0.000461797	0.0027224
12.776	12.6325	0.000518645	0.00239078
12.7765	12.633	-3.04583e-05	0.0030101
12.7769	12.6334	0.000101449	0.00422426
12.7774	12.6339	-0.00134174	0.00375177
12.7779	12.6344	-0.000353895	0.0025404
12.7784	12.6349	0.000514578	0.00233538
12.7788	12.6353	3.4693e-05	0.00310458
12.7793	12.6358	-0.000119687	0.00429341
12.7798	12.6363	-0.00119983	0.00363377
12.7802	12.6368	-0.000483734	0.00259178
12.7807	12.6372	0.000605073	0.00236619
12.7812	12.6377	1.75169e-06	0.00311581
12.7817	12.6382	-0.000111019	0.00421417
12.7821	12.6387	-0.00120876	0.00358894
12.7826	12.6391	-0.000484002	0.00256408
12.7831	12.6396	0.000585401	0.00238208
12.7836	12.64	-1.87228e-05	0.00310335
12.784	12.6405	1.5021e-05	0.00429308
12.7845	12.641	-0.00115868	0.00355125
12.785	12.6415	-0.000496807	0.00257326
12.7854	12.6419	0.000702238	0.0024151
12.7859	12.6424	-4.96168e-08	0.00311752
12.7864	12.6429	-0.000111019	0.00415189
12.7869	12.6433	-0.00119036	0.0036168
12.7873	12.6438	-0.000572962	0.00255801
12.7878	12.6443	0.000723711	0.00242535
12.7883	12.6447	-2.11842e-06	0.00322356
12.7887	12.6452	-0.000157568	0.00422785
12.7892	12.6457	-0.00109246	0.00352822
12.7897	12.6462	-0.000573497	0.00235685
12.7902	12.6467	0.000841547	0.0024909
12.7906	12.6471	2.93602e-05	0.00324535
12.7911	12.6476	-0.000283804	0.00415066
12.7916	12.6481	-0.00105285	0.00346906
12.7921	12.6486	-0.000553558	0.00244871
12.7925	12.649	0.000768459	0.00263274
12.793	12.6495	-0.000176241	0.00326511
12.7935	12.65	-0.000288405	0.00413133
12.7939	12.6504	-0.000957752	0.003482
12.7944	12.6509	-0.000515213	0.00238783
12.7949	12.6514	0.000894499	0.00240028
12.7954	12.6519	-0.000112018	0.00341457
12.7958	12.6523	-0.000382235	0.00411313
12.7963	12.6528	-0.000980491	0.00359968
12.7968	12.6533	-0.000579365	0.00240077
12.7972	12.6537	0.000915437	0.00261202
12.7977	12.6542	-8.13414e-05	0.00339138
12.7982	12.6547	-0.000497342	0.00417771
12.7987	12.6552	-0.000830178	0.00357772
12.7991	12.6557	-0.000575299	0.00227047
12.7996	12.6561	0.000898833	0.00264595
12.8001	12.6566	-0.000142497	0.00329281
12.8006	12.6571	-0.000545621	0.00419237
12.801	12.6576	-0.000913735	0.00342096
12.8015	12.658	-0.000601373	0.00221738
12.802	12.6585	0.000977592	0.00259194
12.8024	12.659	-0.000141427	0.00343808
12.8029	12.6594	-0.000492669	0.00431225
12.8034	12.6599	-0.000851652	0.00344989
12.8039	12.6604	-0.000768023	0.00224524
12.8043	12.6609	0.000814473	0.00261202
12.8048	12.6613	-6.93385e-05	0.00338187
12.8053	12.6618	-0.000659123	0.00410985
12.8057	12.6623	-0.000825042	0.00346767
12.8062	12.6627	-0.000592902	0.00220755
12.8067	12.6632	0.000971457	0.00256564
12.8072	12.6637	-0.000158032	0.00353789
12.8076	12.6641	-0.000669592	0.00415436
12.8081	12.6646	-0.000782095	0.00343996
12.8086	12.6651	-0.00071994	0.00225581
12.8091	12.6656	0.000836482	0.00264267
12.8095	12.666	-0.000150898	0.00354207
12.81	12.6665	-0.000659391	0.00435364
12.8105	12.667	-0.000721545	0.00347808
12.8109	12.6675	-0.000578099	0.00228523
12.8114	12.6679	0.00103074	0.00264176
12.8119	12.6684	-0.000133027	0.00354428
12.8124	12.6689	-0.000827378	0.00414706
12.8128	12.6693	-0.000587569	0.00345177
12.8133	12.6698	-0.000646853	0.00224524
12.8138	12.6702	0.000922108	0.0026511
12.8142	12.6707	-6.44695e-05	0.00355764
12.8147	12.6712	-0.000703871	0.00414051
12.8152	12.6717	-0.000701071	0.00336491
12.8157	12.6721	-0.00071154	0.00222467
12.8161	12.6726	0.000989863	0.00276648
12.8166	12.6731	-7.0141e-05	0.0035891
12.8171	12.6735	-0.000815108	0.00421057
12.8176	12.674	-0.000690869	0.00334499
12.818	12.6745	-0.000596505	0.00211134
12.8185	12.675	0.000985529	0.00265405
12.819	12.6754	-0.000154697	0.00360435
12.8194	12.6759	-0.000837847	0.00412387
12.8199	12.6764	-0.000541287	0.00334
12.8204	12.6769	-0.000529284	0.00205267
12.8209	12.6774	0.000952784	0.00269781
12.8213	12.6778	-9.66795e-05	0.00371473
12.8218	12.6783	-0.000923741	0.00402095
12.8223	12.6788	-0.000598038	0.00340072
12.8227	12.6792	-0.000584502	0.00207677
12.8232	12.6797	0.000898833	0.00274698
12.8237	12.6802	-0.000118688	0.00366072
12.8242	12.6807	-0.00091814	0.00403233
12.8246	12.6811	-0.000604709	0.00331869
12.8251	12.6816	-0.000615445	0.00219697
12.8256	12.6821	0.000837748	0.00277598
12.8261	12.6825	-9.54132e-05	0.00365106
12.8265	12.683	-0.00104238	0.00400103
12.827	12.6835	-0.000500606	0.0033305
12.8275	12.684	-0.000535884	0.00212536
12.8279	12.6844	0.00083081	0.0027355
12.8284	12.6849	-5.45354e-06	0.00381437
12.8289	12.6854	-0.00104311	0.00406127
12.8294	12.6859	-0.000431317	0.00334435
12.8298	12.6864	-0.000526484	0.00218747
12.8303	12.6868	0.000798868	0.00287342
12.8308	12.6873	-0.000120489	0.00371349
12.8312	12.6878	-0.00107099	0.00396662
12.8317	12.6883	-0.00041498	0.00320471
12.8322	12.6887	-0.000410111	0.00214248
12.8327	12.6892	0.000730114	0.00269813
12.8331	12.6896	-6.34707e-05	0.00378462
12.8336	12.6901	-0.0011068	0.00398235
12.8341	12.6906	-0.000455394	0.00308016
12.8346	12.6911	-0.000431121	0.00212724
12.835	12.6915	0.000641885	0.00274468
12.8355	12.692	1.0152e-05	0.00381313
12.836	12.6925	-0.00113134	0.00394687
12.8364	12.6929	-0.00043212	0.00320734
12.8369	12.6934	-0.000422649	0.00211323
12.8374	12.6939	0.000543988	0.00275976
12.8379	12.6943	-4.96665e-05	0.00387632
12.8383	12.6948	-0.00123744	0.00386247
12.8388	12.6953	-0.000458658	0.00319725
12.8393	12.6958	-0.000237059	0.00210265
12.8397	12.6962	0.000622944	0.00292324
12.8402	12.6967	6.77054e-05	0.00392491
12.8407	12.6972	-0.00125658	0.00391696
12.8412	12.6977	-0.000510344	0.00300436
12.8416	12.6981	-0.000179505	0.00219279
12.8421	12.6986	0.000596138	0.00295437
12.8426	12.6991	-1.02513e-05	0.00390263
12.8431	12.6995	-0.00132867	0.00386403
12.8435	12.7	-0.000307346	0.00307409
12.844	12.7005	-0.000152895	0.00218796
12.8445	12.7009	0.000471632	0.0028163
12.8449	12.7014	0.000187342	0.00400678
12.8454	12.7019	-0.00137602	0.00392974
12.8459	12.7024	-0.000396575	0.00309466
12.8464	12.7028	-6.11344e-05	0.00219263
12.8468	12.7033	0.000514846	0.00279262
12.8473	12.7038	1.60198e-05	0.00407855
12.8478	12.7042	-0.0013272	0.00376938
12.8482	12.7047	-0.000339556	0.0030087
12.8487	12.7052	-8.4944e-05	0.00213797
12.8492	12.7057	0.00048417	0.0028608
12.8497	12.7062	0.000118856	-0.00753976
12.8501	12.7066	-0.00141716	0.0115247
12.8506	12.7071	-0.000356161	0.00317374
12.8511	12.7076	-8.77442e-05	0.00227171
12.8516	12.7081	0.000423281	0.0030042
12.852	12.7086	6.89717e-05	0.00412215
12.8525	12.709	-0.00142763	0.00367704
12.853	12.7095	-0.000315015	0.00295126
12.8534	12.7099	-4.27287e-05	0.0021828
12.8539	12.7104	0.000465497	0.00294831
12.8544	12.7109	0.000176873	0.00414566
12.8549	12.7114	-0.0014371	0.00375086
12.8553	12.7118	-0.000411645	0.00286547
12.8558	12.7123	0.000130859	0.00217362
12.8563	12.7128	0.000374467	0.00294831
12.8567	12.7132	0.000175072	0.00400243
12.8572	12.7137	-0.00141049	0.00376455
12.8577	12.7142	-0.000388905	0.00282252
12.8582	12.7147	0.0001526	0.00217502
12.8586	12.7151	0.00034586	0.00288136
12.8591	12.7156	0.000105783	0.00409617
12.8596	12.7161	-0.00155214	0.00376922
12.8601	12.7166	-0.000415515	0.0029016
12.8605	12.717	7.5107e-05	0.00226081
12.861	12.7175	0.000398544	0.00298675
12.8615	12.718	0.000221086	0.00422957
12.8619	12.7185	-0.00148158	0.00372734
12.8624	12.7189	-0.00044719	0.00287063
12.8629	12.7194	0.000139259	0.00215494
12.8634	12.7198	0.000300844	0.00292791
12.8638	12.7203	0.000149265	0.00426694
12.8643	12.7208	-0.00146398	0.00370088
12.8648	12.7213	-0.000365898	0.00285039
12.8652	12.7217	0.00024256	0.00231202
12.8657	12.7222	0.000136192	0.00291685
12.8662	12.7227	0.000219017	0.00422507
12.8667	12.7231	-0.0015202	0.00369121
12.8671	12.7236	-0.00028894	0.00275353
12.8676	12.7241	0.000331253	0.00218747
12.8681	12.7245	0.000179673	0.00304575
12.8686	12.725	0.000185541	0.00415935
12.869	12.7255	-0.00137855	0.0036495
12.8695	12.726	-0.000385303	0.00269765
12.87	12.7264	0.000376001	0.00228072
12.8704	12.7269	6.79729e-05	0.00293102
12.8709	12.7274	6.59041e-05	0.00427317
12.8714	12.7279	-0.00124284	0.00365294
12.8719	12.7283	-0.00038557	0.00275821
12.8723	12.7288	0.000509442	0.0022527
12.8728	12.7293	6.77054e-05	0.00307345
12.8733	12.7297	9.96479e-05	0.00421835
12.8737	12.7302	-0.00134661	0.00373357
12.8742	12.7307	-0.000392508	0.00277968
12.8747	12.7312	0.000470098	0.00224057
12.8752	12.7316	0.000199613	0.00303657
12.8756	12.7321	0.000106782	0.00441125
12.8761	12.7326	-0.00135988	0.00358411
12.8766	12.733	-0.000324753	0.00268068
12.8771	12.7335	0.000471899	0.00237709
12.8775	12.734	-3.30621e-05	0.00321094
12.878	12.7345	-8.25365e-06	0.00430071
12.8785	12.735	-0.00132207	0.00358271
12.8789	12.7354	-0.000420848	0.00259677
12.8794	12.7359	0.000572863	0.0023648
12.8799	12.7364	-1.33189e-05	0.00317669
12.8804	12.7369	1.1222e-05	0.00435692
12.8808	12.7374	-0.00128579	0.00351732
12.8813	12.7378	-0.000416247	0.0026838
12.8818	12.7383	0.000568529	0.00242879
12.8822	12.7388	-3.43284e-05	0.00319381
12.8827	12.7392	-1.84553e-05	0.00418909
12.8832	12.7397	-0.00124051	0.00363672
12.8837	12.7402	-0.000389975	0.00253294
12.8841	12.7406	0.000625548	0.00245247
12.8846	12.7411	-3.81273e-05	0.00318947
12.8851	12.7416	-8.34102e-05	0.00429759
12.8856	12.7421	-0.00111853	0.00358288
12.886	12.7425	-0.000456126	0.00261218
12.8865	12.743	0.000821608	0.00237397
12.887	12.7435	-3.04583e-05	0.00335901
12.8874	12.7439	-8.21439e-05	0.00438322
12.8879	12.7444	-0.00115741	0.00360558
12.8884	12.7449	-0.000459193	0.00245837
12.8889	12.7454	0.000717576	0.00241896
12.8893	12.7458	-0.000107684	0.0032592
12.8898	12.7463	-0.000119687	0.00415017
12.8903	12.7468	-0.000964422	0.0036095
12.8907	12.7473	-0.000542554	0.00251565
12.8912	12.7478	0.000728313	0.0024501
12.8917	12.7482	-6.3667e-05	0.00340523
12.8922	12.7487	-0.000311413	0.00427284
12.8926	12.7491	-0.00115795	0.0035206
12.8931	12.7496	-0.000525949	0.00235545
12.8936	12.7501	0.000772793	0.00239765
12.8941	12.7505	-0.000177508	0.00325888
12.8945	12.751	-0.000362563	0.0041637
12.895	12.7515	-0.00108119	0.00367843
12.8955	12.752	-0.000568093	0.00229957
12.8959	12.7524	0.000791466	0.00254711
12.8964	12.7529	-0.000111554	0.0033845
12.8969	12.7533	-0.000416247	0.00418582
12.8974	12.7538	-0.000975623	0.00362614
12.8978	12.7543	-0.00043599	0.00241183
12.8983	12.7548	0.000904968	0.0025018
12.8988	12.7552	-4.17299e-05	0.00327445
