# 1304     AichiSR QXAFS
# Start     : 8.9544
# End       : 9.0544
# Dir       : Backward
# Points    : 300
# ScanTime  : 1.01549
# Date      : 13.04.23 22:36
# Ring Cur. : 1[mA]
12.7557	12.6119	4.55181e-06	0.00322216
12.7562	12.6123	-8.4409e-05	0.00423736
12.7566	12.6128	-0.00116995	0.00351389
12.7571	12.6133	-0.000520278	0.00248312
12.7576	12.6137	0.000639084	0.00244592
12.7581	12.6142	-5.64985e-06	0.00314399
12.7585	12.6147	-0.000258996	0.00423081
12.759	12.6152	-0.00106972	0.00354191
12.7595	12.6156	-0.000466666	0.00241634
12.7599	12.6161	0.000868692	0.002402
12.7604	12.6166	-1.10538e-05	0.00324626
12.7609	12.6171	-0.000147099	0.00425465
12.7614	12.6175	-0.00109426	0.00351749
12.7618	12.618	-0.000534617	0.00243486
12.7623	12.6185	0.000813403	0.00242863
12.7628	12.619	-4.19974e-05	0.00338671
12.7632	12.6194	-0.000320152	0.00427005
12.7637	12.6199	-0.00097309	0.00352135
12.7642	12.6204	-0.000392776	0.00237757
12.7647	12.6208	0.00080907	0.00238348
12.7651	12.6213	-0.000135827	0.00320036
12.7656	12.6218	-0.00041218	0.00430693
12.7661	12.6223	-0.00102091	0.00347684
12.7666	12.6227	-0.000644588	0.00233661
12.767	12.6232	0.000715311	0.00253074
12.7675	12.6237	-2.12554e-05	0.00321217
12.768	12.6241	-0.000470732	0.00413009
12.7684	12.6246	-0.000928342	0.00352913
12.7689	12.6251	-0.000538951	0.00234472
12.7694	12.6256	0.000846148	0.0024828
12.7699	12.6261	-0.000124288	0.00338515
12.7703	12.6265	-0.000474067	0.00424793
12.7708	12.627	-0.000930678	0.00351405
12.7713	12.6275	-0.000606242	0.00236372
12.7717	12.628	0.000978323	0.00256564
12.7722	12.6284	-0.000183108	0.003399
12.7727	12.6289	-0.000518548	0.00426227
12.7732	12.6294	-0.000832978	0.00346455
12.7736	12.6298	-0.000534885	0.00228105
12.7741	12.6303	0.000903167	0.0025622
12.7746	12.6308	-0.000121755	0.00334885
12.7751	12.6313	-0.000522614	0.00416885
12.7755	12.6317	-0.000909936	0.00358099
12.776	12.6322	-0.000670395	0.00226999
12.7765	12.6327	0.00104535	0.00258104
12.7769	12.6331	-2.07916e-05	0.00357337
12.7774	12.6336	-0.000670859	0.00422056
12.7779	12.6341	-0.000798236	0.00360886
12.7784	12.6345	-0.000615178	0.00213003
12.7788	12.635	0.000904968	0.00266962
12.7793	12.6355	-0.000125626	0.0036132
12.7798	12.636	-0.000755289	0.00417991
12.7802	12.6364	-0.000785698	0.00341129
12.7807	12.6369	-0.00064432	0.00217673
12.7812	12.6374	0.00102	0.002667
12.7817	12.6379	-4.57963e-05	0.00357058
12.7821	12.6383	-0.000775496	0.00409412
12.7826	12.6388	-0.000651258	0.00343513
12.7831	12.6393	-0.000640717	0.00216084
12.7836	12.6397	0.00092464	0.00261669
12.784	12.6402	-0.000116887	0.00364434
12.7845	12.6407	-0.000876728	0.00413009
12.785	12.6411	-0.000750153	0.00349381
12.7854	12.6416	-0.000549688	0.00209438
12.7859	12.6421	0.000914706	0.00272412
12.7864	12.6425	-9.02768e-05	0.00363253
12.7869	12.643	-0.000848049	0.00424777
12.7873	12.6435	-0.000564295	0.00343932
12.7878	12.6439	-0.000805905	0.00224491
12.7883	12.6444	0.00100493	0.00277517
12.7887	12.6449	-0.000170837	0.00366286
12.7892	12.6454	-0.000854184	0.00413305
12.7897	12.6458	-0.000601373	0.00322602
12.7902	12.6463	-0.000686	0.0021129
12.7906	12.6468	0.000955851	0.00279729
12.7911	12.6473	-8.4944e-05	0.00379847
12.7916	12.6478	-0.000981026	0.00410969
12.7921	12.6482	-0.000628714	0.00349102
12.7925	12.6487	-0.000519814	0.00219182
12.793	12.6492	0.000946648	0.00270076
12.7935	12.6496	-8.51404e-05	0.00368858
12.7939	12.6501	-0.00100503	0.00404946
12.7944	12.6506	-0.000587569	0.00326666
12.7949	12.6511	-0.000413714	0.00217502
12.7954	12.6516	0.000925639	0.00272256
12.7958	12.652	-0.000113819	0.00368998
12.7963	12.6525	-0.00110066	0.00412215
12.7968	12.653	-0.000468467	0.00324675
12.7972	12.6534	-0.000451792	0.00216863
12.7977	12.6539	0.000745452	0.00278312
12.7982	12.6544	-5.60692e-05	0.0037158
12.7987	12.6548	-0.00112187	0.00403233
12.7991	12.6553	-0.000572427	0.00324159
12.7996	12.6558	-0.000525414	0.00215805
12.8001	12.6563	0.000704307	0.0026788
12.8006	12.6568	-4.63313e-05	0.00383788
12.801	12.6572	-0.00119829	0.00405585
12.8015	12.6577	-0.000421115	0.00324954
12.802	12.6582	-0.000451257	0.00201498
12.8024	12.6587	0.000667959	0.00278532
12.8029	12.6591	3.31592e-05	0.00390606
12.8034	12.6596	-0.00111807	0.00391401
12.8039	12.66	-0.000487337	0.00309868
12.8043	12.6605	-0.000363562	0.00206668
12.8048	12.661	0.000578	0.00283466
12.8053	12.6615	5.82351e-05	0.00392565
12.8057	12.6619	-0.00121037	0.00399325
12.8062	12.6624	-0.000440056	0.00318291
12.8067	12.6629	-0.000343159	0.00219853
12.8072	12.6633	0.000603807	0.00283728
12.8076	12.6638	9.43152e-05	0.0039154
12.8081	12.6643	-0.00129753	0.00389812
12.8086	12.6647	-0.000388905	0.00312343
12.8091	12.6652	-0.000239859	0.00222811
12.8095	12.6657	0.000582334	0.00276583
12.81	12.6662	4.84972e-05	0.00391991
12.8105	12.6667	-0.00134607	0.00391352
12.8109	12.6671	-0.00037717	0.00313261
12.8114	12.6676	-0.000165505	0.00214248
12.8119	12.6681	0.00056086	0.00285039
12.8124	12.6685	1.52885e-05	0.00402423
12.8128	12.669	-0.00136755	0.00386263
12.8133	12.6695	-0.000355429	0.0032016
12.8138	12.6699	-0.000101013	0.00213765
12.8142	12.6704	0.000453226	0.00283621
12.8147	12.6709	5.97689e-05	0.00391369
12.8152	12.6714	-0.00146651	0.00393548
12.8157	12.6718	-0.00041498	0.00303517
12.8161	12.6723	-3.89298e-05	0.00210012
12.8166	12.6727	0.000425618	0.00288866
12.8171	12.6732	2.88252e-05	0.00413321
12.8176	12.6737	-0.00156161	0.00381609
12.818	12.6742	-0.000310146	0.00299142
12.8185	12.6746	0.000104517	0.00217673
12.819	12.6751	0.000489235	0.0029774
12.8194	12.6756	0.00011265	0.00404258
12.8199	12.6761	-0.00137702	0.00391803
12.8204	12.6766	-0.000419314	0.00289366
12.8209	12.677	7.10405e-05	0.00222017
12.8213	12.6775	0.000475163	0.00287776
12.8218	12.678	8.25085e-05	0.0041251
12.8223	12.6785	-0.00149692	0.00382355
12.8227	12.6789	-0.000147295	0.00291545
12.8232	12.6794	5.79676e-05	0.00227589
12.8237	12.6799	0.000314113	0.00298019
12.8242	12.6803	8.76449e-05	0.00418877
12.8246	12.6808	-0.00148465	0.00368703
12.8251	12.6813	-0.000345959	0.00300248
12.8256	12.6818	0.000144663	0.00229302
12.8261	12.6822	0.000280905	0.00285908
12.8265	12.6827	0.00015153	0.00424031
12.827	12.6832	-0.00149746	0.00368793
12.8275	12.6836	-0.000361564	0.00297617
12.8279	12.6841	0.00021315	0.0022155
12.8284	12.6846	0.000272968	0.00301026
12.8289	12.6851	9.01775e-05	0.00424949
12.8294	12.6855	-0.00150486	0.00380331
12.8298	12.686	-0.00033549	0.00303984
12.8303	12.6865	0.000266637	0.00221582
12.8308	12.687	0.000253564	0.00303673
12.8312	12.6875	0.000129058	0.00418926
12.8317	12.6879	-0.00138722	0.00362426
12.8322	12.6884	-0.000359228	0.00275713
12.8327	12.6889	0.000162534	0.00231407
12.8331	12.6893	0.000204482	0.00295405
12.8336	12.6898	0.000155132	0.00414583
12.8341	12.6903	-0.00151993	0.00363565
12.8346	12.6907	-0.000322952	0.00275665
12.835	12.6912	0.000195011	0.00222827
12.8355	12.6917	0.000147463	0.00293692
12.836	12.6922	0.000174804	0.00416918
12.8364	12.6926	-0.00139235	0.00357649
12.8369	12.6931	-0.000304546	0.00269126
12.8374	12.6935	0.000351995	0.00225318
12.8379	12.694	0.000152332	0.0030523
12.8383	12.6945	0.00019881	0.00430881
12.8388	12.695	-0.00139849	0.00363516
12.8393	12.6954	-0.000368966	0.00260702
12.8397	12.6959	0.000451692	0.00232759
12.8402	12.6964	-2.38592e-05	0.00299502
12.8407	12.6969	0.000110652	0.00414878
12.8412	12.6973	-0.00140309	0.00366474
12.8416	12.6978	-0.000452327	0.00271617
12.8421	12.6983	0.000419482	0.00240093
12.8426	12.6987	-7.45116e-06	0.00308639
12.8431	12.6992	-5.72104e-06	0.00421572
12.8435	12.6997	-0.00137422	0.0036182
12.844	12.7001	-0.0003761	0.00262979
12.8445	12.7006	0.000513312	0.00230875
12.8449	12.7011	0.000111651	0.00310491
12.8454	12.7016	-2.4858e-05	0.00423548
12.8459	12.702	-0.0013144	0.0035519
12.8464	12.7025	-0.00046713	0.00258695
12.8468	12.703	0.000561592	0.00236914
12.8473	12.7034	-3.81273e-05	0.00312359
12.8478	12.7039	-0.000151362	0.00429947
12.8482	12.7044	-0.00108299	0.00361181
12.8487	12.7049	-0.00046433	0.00256703
12.8492	12.7053	0.000687435	0.00239421
12.8497	12.7058	-6.40057e-05	0.00322806
12.8501	12.7063	-6.39345e-05	0.00408446
12.8506	12.7068	-0.00129366	0.00359533
12.8511	12.7073	-0.000392241	0.00242068
12.8516	12.7078	0.000675361	0.00243518
12.852	12.7082	-0.000131957	0.00327665
12.8525	12.7087	-0.00021225	0.00431397
12.853	12.7092	-0.00114434	0.00361836
12.8534	12.7096	-0.000386569	0.00258604
12.8539	12.7101	0.000664892	0.00242895
12.8544	12.7106	-5.21991e-05	0.00323741
12.8549	12.711	-0.00011282	0.00419844
12.8553	12.7115	-0.00114921	0.00352871
12.8558	12.712	-0.000438255	0.00243862
12.8563	12.7125	0.000737783	0.00243158
12.8567	12.7129	-3.89298e-05	0.00321824
12.8572	12.7134	-0.000284339	0.00423253
12.8577	12.7139	-0.00109653	0.00354937
12.8582	12.7143	-0.000512876	0.00227621
12.8586	12.7148	0.000732647	0.00248435
12.8591	12.7153	-1.7189e-05	0.00313326
12.8596	12.7158	-0.000314016	0.00422458
12.8601	12.7162	-0.000973821	0.00344989
12.8605	12.7167	-0.000499607	0.00222156
12.861	12.7172	0.00100367	0.00243904
12.8615	12.7177	-0.00011842	0.00338327
12.8619	12.7182	-0.000321685	0.00421121
12.8624	12.7186	-0.00106332	0.00350438
12.8629	12.7191	-0.000498608	0.00226875
12.8634	12.7195	0.000891431	0.00259849
12.8638	12.72	-0.000109752	0.00328674
12.8643	12.7205	-0.00056763	0.0041455
12.8648	12.7209	-0.000934477	0.00344898
12.8652	12.7214	-0.000575031	0.00226253
12.8657	12.7219	0.000796799	0.00254212
12.8662	12.7223	-0.000220454	0.00331992
12.8667	12.7228	-0.000489602	0.00419827
12.8671	12.7233	-0.000890264	0.00344383
12.8676	12.7237	-0.00061211	0.00214281
12.8681	12.7242	0.00093411	0.00255318
12.8686	12.7247	-0.000176973	0.00346004
12.869	12.7252	-0.000580899	0.0042249
12.8695	12.7256	-0.000919407	0.00343948
12.87	12.7261	-0.000567095	0.00217502
12.8704	12.7266	0.000866623	0.00270248
12.8709	12.7271	-6.86072e-05	0.00351405
12.8714	12.7275	-0.000613109	0.00417213
12.8719	12.728	-0.000822973	0.00350331
12.8723	12.7285	-0.000622847	0.00225614
12.8728	12.729	0.00104608	0.00256875
12.8733	12.7294	4.46983e-05	0.00345038
12.8737	12.7299	-0.000661923	0.00436814
12.8742	12.7304	-0.000772625	0.00347373
12.8747	12.7308	-0.000637917	0.00223214
12.8752	12.7313	0.000974257	0.00274403
12.8756	12.7318	-0.000162901	0.00355904
12.8761	12.7323	-0.000722009	0.00424949
12.8766	12.7327	-0.000753755	0.00354781
12.8771	12.7332	-0.000663528	0.00231948
12.8775	12.7337	0.00097959	0.00268535
12.878	12.7341	-0.000149096	0.00365229
12.8785	12.7346	-0.000755022	0.00418738
12.8789	12.7351	-0.000731212	0.00335573
12.8794	12.7356	-0.000709542	0.00222779
12.8799	12.7361	0.00101667	0.00268691
12.8804	12.7366	-0.000142961	0.00346316
12.8808	12.737	-0.000667595	0.00413927
12.8813	12.7375	-0.000608507	0.00328395
12.8818	12.738	-0.000639184	0.00221099
12.8822	12.7385	0.00094845	0.00276878
12.8827	12.7389	-3.07258e-05	0.00352011
12.8832	12.7394	-0.000803836	0.0041346
12.8837	12.7399	-0.000702337	0.00335229
12.8841	12.7403	-0.000678599	0.00236061
12.8846	12.7408	0.00086302	0.00254851
12.8851	12.7413	-3.50597e-05	0.00366958
12.8856	12.7418	-0.000911203	0.00418598
12.886	12.7422	-0.000645051	0.0033568
12.8865	12.7427	-0.00061771	0.00204907
12.887	12.7431	0.000801204	0.00265234
12.8874	12.7436	-7.06048e-05	0.00357632
12.8879	12.7441	-0.00088873	0.00407437
12.8884	12.7446	-0.000560228	0.00327837
12.8889	12.745	-0.000514945	0.00209299
12.8893	12.7455	0.000775861	0.00278
12.8898	12.746	1.09545e-05	0.00368236
12.8903	12.7465	-0.00105565	0.00400382
12.8907	12.7469	-0.000453593	0.00328256
12.8912	12.7474	-0.000494738	0.00213733
12.8917	12.7479	0.000849751	0.00277254
12.8922	12.7484	-8.13414e-05	0.00372981
12.8926	12.7488	-0.00100277	0.00390188
12.8931	12.7493	-0.000607509	0.00320299
12.8936	12.7498	-0.000423452	0.00220304
12.8941	12.7502	0.000792465	0.00281721
12.8945	12.7507	8.61111e-05	0.00382167
12.895	12.7512	-0.00116021	0.0040879
12.8955	12.7517	-0.000498805	0.00317374
12.8959	12.7521	-0.000413446	0.00212568
12.8964	12.7526	0.000787864	0.0027137
12.8969	12.753	-7.0141e-05	0.00377528
12.8974	12.7535	-0.00112421	0.00395991
12.8978	12.754	-0.000500873	0.00328191
12.8983	12.7544	-0.000402442	0.00211822
12.8988	12.7549	0.000596138	0.00282998
