# 1304     AichiSR QXAFS
# Start     : 8.9544
# End       : 9.0544
# Dir       : Forward
# Points    : 300
# ScanTime  : 1.01549
# Date      : 13.04.23 22:53
# Ring Cur. : 0.9[mA]
12.7557	12.756	0.000766123	0.0028594
12.7562	12.7555	2.67564e-05	0.00380503
12.7566	12.7551	-0.001116	0.00408806
12.7571	12.7546	-0.000525147	0.00323601
12.7576	12.7541	-0.000406312	0.00211151
12.7581	12.7536	0.000735714	0.00269937
12.7585	12.7532	-8.70128e-05	0.00382789
12.759	12.7527	-0.00118069	0.00381174
12.7595	12.7523	-0.000526217	0.00321856
12.7599	12.7518	-0.000353093	0.00215461
12.7604	12.7513	0.000542722	0.00289709
12.7609	12.7508	-7.18366e-06	0.00398981
12.7614	12.7504	-0.00122544	0.00396318
12.7618	12.7499	-0.000443124	0.00321389
12.7623	12.7494	-0.000303744	0.00212273
12.7628	12.749	0.000640351	0.00280384
12.7632	12.7485	1.80886e-05	0.0039853
12.7637	12.748	-0.00134074	0.00389721
12.7642	12.7476	-0.000436721	0.00319038
12.7647	12.7471	-0.000116619	0.00220025
12.7651	12.7466	0.000563393	0.0027814
12.7656	12.7461	5.30987e-05	0.00412059
12.7661	12.7457	-0.00140056	0.00380846
12.7666	12.7452	-0.000402442	0.00308376
12.767	12.7447	-0.000132225	0.00208472
12.7675	12.7442	0.000415612	0.00301509
12.768	12.7438	6.97742e-05	0.00400694
12.7684	12.7433	-0.00146471	0.0038505
12.7689	12.7428	-0.000381968	0.00306148
12.7694	12.7424	-8.9813e-05	0.00223155
12.7699	12.7419	0.000353529	0.00292914
12.7703	12.7414	0.000179941	0.00408167
12.7708	12.741	-0.00148799	0.00388754
12.7713	12.7405	-0.000383305	0.00300387
12.7717	12.74	1.65548e-05	0.00221206
12.7722	12.7395	0.000346127	0.00288243
12.7727	12.7391	0.000196545	0.00417057
12.7732	12.7386	-0.00145578	0.00384846
12.7736	12.7381	-0.000397306	0.00296527
12.7741	12.7377	0.000141061	0.00222951
12.7746	12.7372	0.000394139	0.002804
12.7751	12.7367	0.000176606	0.00415329
12.7755	12.7362	-0.00148592	0.00377437
12.776	12.7357	-0.000348028	0.002844
12.7765	12.7353	0.000209351	0.00233521
12.7769	12.7348	0.000237958	0.00298707
12.7774	12.7343	0.000303181	0.00429652
12.7779	12.7338	-0.00142123	0.00376192
12.7784	12.7334	-0.000321418	0.00290144
12.7788	12.7329	0.000267832	0.00227638
12.7793	12.7324	0.000283241	0.00299592
12.7798	12.732	0.000106586	0.004337
12.7802	12.7315	-0.00151126	0.00386763
12.7807	12.731	-0.000283073	0.00286751
12.7812	12.7305	0.000224154	0.00224819
12.7817	12.73	0.000148462	0.00299469
12.7821	12.7296	0.000265567	0.00422957
12.7826	12.7291	-0.0014113	0.00378774
12.7831	12.7287	-0.000456126	0.00281597
12.7836	12.7282	0.000225688	0.00227154
12.784	12.7277	0.000205481	0.00302255
12.7845	12.7272	9.73116e-05	0.00431923
12.785	12.7268	-0.0014169	0.00377233
12.7854	12.7263	-0.000290474	0.00283015
12.7859	12.7258	0.000368332	0.00227294
12.7864	12.7253	0.0001638	0.00309278
12.7869	12.7249	6.2569e-05	0.00421696
12.7873	12.7244	-0.00136781	0.00364917
12.7878	12.7239	-0.00045279	0.00268847
12.7883	12.7234	0.000388271	0.00240372
12.7887	12.723	2.82902e-05	0.00314276
12.7892	12.7225	0.000136994	0.0043166
12.7897	12.7221	-0.00126351	0.00366646
12.7902	12.7216	-0.000418048	0.00277517
12.7906	12.7211	0.000385739	0.00226441
12.7911	12.7206	7.94409e-05	0.00310072
12.7916	12.7202	0.00013546	0.00424187
12.7921	12.7197	-0.00141436	0.00357428
12.7925	12.7192	-0.000428784	0.00265282
12.793	12.7188	0.000616612	0.00232432
12.7935	12.7183	-3.40609e-05	0.00320439
12.7939	12.7178	-0.000100015	0.00434774
12.7944	12.7174	-0.00130546	0.00375848
12.7949	12.7169	-0.000396842	0.00250008
12.7954	12.7164	0.000571864	0.00239593
12.7958	12.7159	-0.000125287	0.00319488
12.7963	12.7155	-0.000107149	0.00432578
12.7968	12.715	-0.00118782	0.00359501
12.7972	12.7145	-0.000498608	0.00258104
12.7977	12.714	0.000715507	0.00245977
12.7982	12.7135	-0.000108219	0.00315988
12.7987	12.7131	-0.000281004	0.00426211
12.7991	12.7126	-0.00128119	0.00361713
12.7996	12.7121	-0.000473265	0.00248124
12.8001	12.7117	0.000814937	0.00247705
12.8006	12.7112	-4.96665e-05	0.00326822
12.801	12.7107	-0.00019718	0.00415951
12.8015	12.7103	-0.00111907	0.00353847
12.802	12.7098	-0.000445193	0.00243469
12.8024	12.7093	0.000751855	0.00248967
12.8029	12.7089	-6.91616e-06	0.00332942
12.8034	12.7084	-0.000282341	0.00418115
12.8039	12.7079	-0.00110193	0.00362754
12.8043	12.7074	-0.000594703	0.00238954
12.8048	12.707	0.000779196	0.00250025
12.8053	12.7065	-9.66795e-05	0.00339154
12.8057	12.706	-0.000398108	0.00431627
12.8062	12.7055	-0.00106665	0.00352232
12.8067	12.705	-0.000525414	0.00234456
12.8072	12.7045	0.000927975	0.00255458
12.8076	12.7041	-0.000149096	0.00335245
12.8081	12.7036	-0.000500142	0.00413305
12.8086	12.7031	-0.000952152	0.00363393
12.8091	12.7027	-0.000602372	0.0023743
12.8095	12.7022	0.000889363	0.00264176
12.81	12.7017	-6.55395e-05	0.00336802
12.8105	12.7013	-0.000524879	0.00418163
12.8109	12.7008	-0.000959553	0.00344587
12.8114	12.7003	-0.000604709	0.00237274
12.8119	12.6998	0.00095965	0.00266044
12.8124	12.6994	-4.01961e-05	0.00355453
12.8128	12.6989	-0.000586303	0.00424342
12.8133	12.6985	-0.000792101	0.00348135
12.8138	12.698	-0.000721278	0.00218624
12.8142	12.6975	0.0010006	0.00257277
12.8147	12.697	-0.000142159	0.00354052
12.8152	12.6966	-0.000727146	0.00424809
12.8157	12.6961	-0.000725344	0.00338671
12.8161	12.6956	-0.000573765	0.00226236
12.8166	12.6951	0.000913636	0.00266028
12.8171	12.6947	-0.000170302	0.00353461
12.8176	12.6942	-0.000577831	0.00425572
12.818	12.6937	-0.000710006	0.00348807
12.8185	12.6932	-0.000651722	0.00215757
12.819	12.6928	0.000921305	0.00270527
12.8194	12.6923	-7.06048e-05	0.0035388
12.8199	12.6919	-0.000727413	0.00419049
12.8204	12.6914	-0.000750153	0.0034485
12.8209	12.6909	-0.000659123	0.00223155
12.8213	12.6904	0.00102947	0.00273346
12.8218	12.69	2.90927e-05	0.00374243
12.8223	12.6895	-0.000849583	0.00415517
12.8227	12.689	-0.000674194	0.00332411
12.8232	12.6886	-0.000667791	0.00212831
12.8237	12.6881	0.000827011	0.00285162
12.8242	12.6876	-0.000107951	0.00356977
12.8246	12.6872	-0.000923206	0.00413755
12.8251	12.6867	-0.000589834	0.00336974
12.8256	12.6862	-0.00055329	0.00215666
12.8261	12.6857	0.000842617	0.00279278
12.8265	12.6852	2.483e-06	0.00369932
12.827	12.6848	-0.000834512	0.004155
12.8275	12.6843	-0.000545086	0.0033509
12.8279	12.6838	-0.000597771	0.00214608
12.8284	12.6833	0.000886295	0.00278532
12.8289	12.6829	-9.02768e-05	0.00366941
12.8294	12.6824	-0.000997363	0.00409896
12.8298	12.6819	-0.000636651	0.00327166
12.8303	12.6815	-0.000512145	0.00217223
12.8308	12.681	0.000739317	0.00273501
12.8312	12.6805	-1.51202e-05	0.00365975
12.8317	12.68	-0.001106	0.00407544
12.8322	12.6796	-0.000569895	0.00328256
12.8327	12.6791	-0.000548689	0.00210045
12.8331	12.6786	0.000798868	0.00285162
12.8336	12.6782	-1.89903e-05	0.00381109
12.8341	12.6777	-0.00120469	0.00392442
12.8346	12.6772	-0.000547155	0.00324299
12.835	12.6767	-0.000429516	0.00216272
12.8355	12.6762	0.000687899	0.00276271
12.836	12.6758	7.35732e-05	0.00380765
12.8364	12.6753	-0.00115561	0.00400849
12.8369	12.6748	-0.000519547	0.00311441
12.8374	12.6743	-0.00043492	0.00215526
12.8379	12.6738	0.000594871	0.00275198
12.8383	12.6734	-8.59429e-05	0.0039118
12.8388	12.6729	-0.00117402	0.00398251
12.8393	12.6724	-0.000511146	0.00319832
12.8397	12.672	-0.00027667	0.00207742
12.8402	12.6715	0.000667692	0.00290595
12.8407	12.671	-0.000101548	0.00398809
12.8412	12.6706	-0.00129852	0.00398031
12.8416	12.6701	-0.000425717	0.00316423
12.8421	12.6696	-0.000199177	0.00210823
12.8426	12.6692	0.000556259	0.00280803
12.8431	12.6687	3.36942e-05	0.00393392
12.8435	12.6683	-0.00139082	0.0039
12.844	12.6678	-0.000337024	0.00293537
12.8445	12.6673	-0.000123824	0.00214216
12.8449	12.6668	0.000451692	0.00284867
12.8454	12.6664	6.43703e-05	0.00402111
12.8459	12.6659	-0.00136528	0.00385452
12.8464	12.6654	-0.000388905	0.00305697
12.8468	12.6649	-3.07258e-05	0.00222811
12.8473	12.6644	0.000507641	0.00285785
12.8478	12.664	7.25743e-05	0.0039372
12.8482	12.6635	-0.00136141	0.00384534
12.8487	12.663	-0.000451524	0.00305402
12.8492	12.6626	-1.87228e-05	0.00212831
12.8497	12.6621	0.000344326	0.00298207
12.8501	12.6616	3.5763e-05	0.00418147
12.8506	12.6612	-0.00151153	0.00372767
12.8511	12.6607	-0.000264935	0.00302894
12.8516	12.6602	9.5849e-05	0.00221877
12.852	12.6598	0.000302913	0.00285318
12.8525	12.6593	5.67013e-05	0.00420917
12.853	12.6588	-0.00150566	0.00389393
12.8534	12.6584	-0.000348224	0.00302567
12.8539	12.6579	6.77054e-05	0.00219853
12.8544	12.6574	0.00045196	0.00293569
12.8549	12.6569	0.000132857	0.00422442
12.8553	12.6565	-0.00146264	0.0037566
12.8558	12.656	-0.000376903	0.00288834
12.8563	12.6555	0.000252297	0.00230612
12.8567	12.655	0.000224885	0.0028921
12.8572	12.6545	0.000240491	0.00427579
12.8577	12.6541	-0.00150125	0.00374152
12.8582	12.6536	-0.000447725	0.00291218
12.8586	12.6531	0.000161803	0.00234955
12.8591	12.6527	0.000228024	0.00294471
12.8596	12.6522	0.000149265	0.00420171
12.8601	12.6517	-0.00146264	0.00367752
12.8605	12.6512	-0.000374102	0.00282188
12.861	12.6508	0.000139259	0.00211881
12.8615	12.6503	0.000172004	0.00296683
12.8619	12.6498	0.000131127	0.004195
12.8624	12.6493	-0.00148565	0.00364032
12.8629	12.6489	-0.000320152	0.00279761
12.8634	12.6484	0.000329523	0.00227965
12.8638	12.6479	7.17718e-05	0.00300666
12.8643	12.6475	9.96479e-05	0.00430881
12.8648	12.647	-0.00148465	0.00365385
12.8652	12.6465	-0.000410646	0.0028558
12.8657	12.646	0.000397207	0.00223573
12.8662	12.6455	9.40477e-05	0.00309605
12.8667	12.6451	3.98294e-05	0.00424063
12.8671	12.6446	-0.00146318	0.00360451
12.8676	12.6441	-0.000411913	0.00264455
12.8681	12.6436	0.000463695	0.00229678
12.8686	12.6432	2.88252e-05	0.00312252
12.869	12.6427	6.05714e-05	0.00425604
12.8695	12.6423	-0.00136862	0.00366662
12.87	12.6418	-0.000496807	0.00265717
12.8704	12.6413	0.000447091	0.00243502
12.8709	12.6408	8.2776e-05	0.00308548
12.8714	12.6404	-0.000133027	0.00422179
12.8719	12.6399	-0.00129159	0.00372562
12.8723	12.6394	-0.000341625	0.00268331
12.8728	12.639	0.000528918	0.00241462
12.8733	12.6385	5.28312e-05	0.0032184
12.8737	12.638	-0.000133027	0.00424219
12.8742	12.6376	-0.0012277	0.0035279
12.8747	12.6371	-0.000513679	0.00260547
12.8752	12.6366	0.000652889	0.00237725
12.8756	12.6361	-8.88142e-05	0.0032315
12.8761	12.6357	-0.000149899	0.00429153
12.8766	12.6352	-0.00114641	0.00353305
12.8771	12.6347	-0.000368698	0.00257374
12.8775	12.6342	0.000682031	0.00239905
12.878	12.6338	-0.000106952	0.00329689
12.8785	12.6333	-0.000184374	0.00424621
12.8789	12.6328	-0.00106665	0.00351823
12.8794	12.6324	-0.000448724	0.00246771
12.8799	12.6319	0.00075972	0.00240232
12.8804	12.6314	4.81931e-06	0.00326108
12.8808	12.631	-0.000251327	0.00433979
12.8813	12.6305	-0.00108713	0.00354846
12.8818	12.63	-0.000576833	0.00233661
12.8822	12.6295	0.000764857	0.00249885
12.8827	12.6291	-0.000195646	0.0034485
12.8832	12.6286	-0.000336756	0.00431177
12.8837	12.6281	-0.000981026	0.00346595
12.8841	12.6277	-0.000513946	0.00236029
12.8846	12.6272	0.000840281	0.00250148
12.8851	12.6267	-5.03978e-05	0.00330591
12.8856	12.6262	-0.000506741	0.0041732
12.886	12.6257	-0.00103084	0.00361353
12.8865	12.6253	-0.000697736	0.00234767
12.887	12.6248	0.00097959	0.00263258
12.8874	12.6243	-0.00010615	0.0033123
12.8879	12.6238	-0.000441055	0.00419967
12.8884	12.6234	-0.00093701	0.00349102
12.8889	12.6229	-0.000615445	0.0023262
12.8893	12.6224	0.000987526	0.00262029
12.8898	12.622	5.49e-05	0.00344431
12.8903	12.6215	-0.000575031	0.00415312
12.8907	12.621	-0.000868256	0.00349365
12.8912	12.6205	-0.000625914	0.00219697
12.8917	12.62	0.000925639	0.00262571
12.8922	12.6196	-0.000150095	0.00345145
12.8926	12.6191	-0.000671661	0.00420499
12.8931	12.6186	-0.000814573	0.00361713
12.8936	12.6182	-0.000610844	0.00219697
12.8941	12.6177	0.000954852	0.00268331
12.8945	12.6172	-0.000151629	0.00350454
12.895	12.6168	-0.000639986	0.00412215
12.8955	12.6163	-0.000793099	0.00347577
12.8959	12.6158	-0.000739951	0.0022359
12.8964	12.6153	0.000954781	0.0026897
12.8969	12.6148	-0.000121755	0.00352774
12.8974	12.6144	-0.00073708	0.00414534
12.8978	12.6139	-0.000635652	0.00358362
12.8983	12.6134	-0.000544623	0.00213593
12.8988	12.613	0.000936911	0.0026838
