# 1304     AichiSR QXAFS
# Start     : 8.9544
# End       : 9.0544
# Dir       : Backward
# Points    : 300
# ScanTime  : 1.01549
# Date      : 13.04.23 23:00
# Ring Cur. : 0.9[mA]
12.7557	12.6122	-0.00115841	0.00350175
12.7562	12.6126	-0.000494007	0.00242208
12.7566	12.6131	0.000836214	0.00250492
12.7571	12.6135	-2.76582e-05	0.00303034
12.7576	12.614	-0.00037997	0.00415779
12.7581	12.6145	-0.000945481	0.00349553
12.7585	12.615	-0.000574496	0.00231186
12.759	12.6154	0.000905236	0.00254196
12.7595	12.6159	-1.97216e-05	0.00330854
12.7599	12.6164	-0.000411913	0.00413288
12.7604	12.6169	-0.000977156	0.00350487
12.7609	12.6173	-0.000501141	0.00226376
12.7614	12.6178	0.000919504	0.00253696
12.7618	12.6183	-4.35312e-05	0.00334016
12.7623	12.6188	-0.000436989	0.00411855
12.7628	12.6192	-0.00100937	0.00355608
12.7632	12.6197	-0.000489138	0.00230096
12.7637	12.6202	0.000967587	0.00265561
12.7642	12.6206	-5.73355e-05	0.00324986
12.7647	12.6211	-0.000353628	0.00408511
12.7651	12.6216	-0.000879528	0.00352028
12.7656	12.6221	-0.000564295	0.00226392
12.7661	12.6225	0.00106115	0.00245214
12.7666	12.623	-8.9813e-05	0.00328878
12.767	12.6235	-0.00057043	0.00406782
12.7675	12.6239	-0.000806369	0.00351437
12.768	12.6244	-0.000587034	0.0022082
12.7684	12.6249	0.00106268	0.00258555
12.7689	12.6254	-8.9813e-05	0.0034376
12.7694	12.6259	-0.000569627	0.00419065
12.7699	12.6263	-0.000837116	0.00348135
12.7703	12.6268	-0.000550223	0.0022236
12.7708	12.6273	0.00105221	0.00264659
12.7713	12.6278	-6.93385e-05	0.00340056
12.7717	12.6282	-0.000690334	0.00412682
12.7722	12.6287	-0.000827111	0.00336024
12.7727	12.6292	-0.000561762	0.00214903
12.7732	12.6296	0.000978591	0.00262356
12.7736	12.6301	-9.05443e-05	0.00340786
12.7741	12.6306	-0.000684199	0.00409584
12.7746	12.6311	-0.00069647	0.00343637
12.7751	12.6315	-0.00060931	0.00218935
12.7755	12.632	0.0010126	0.00265438
12.776	12.6325	-1.02513e-05	0.0035424
12.7765	12.6329	-0.000751419	0.00408945
12.7769	12.6334	-0.000644516	0.00333345
12.7774	12.6339	-0.000682933	0.00210791
12.7779	12.6343	0.00107955	0.00263586
12.7784	12.6348	-0.000124556	0.00356731
12.7788	12.6353	-0.0007893	0.00416574
12.7793	12.6358	-0.000544355	0.00338687
12.7798	12.6362	-0.000741681	0.00207586
12.7802	12.6367	0.000991664	0.00270855
12.7807	12.6372	-7.80063e-05	0.00354003
12.7812	12.6377	-0.00088206	0.00406315
12.7817	12.6381	-0.000547423	0.00329517
12.7821	12.6386	-0.000578099	0.00215821
12.7826	12.6391	0.000962718	0.00259473
12.7831	12.6395	-7.39399e-05	0.00369465
12.7836	12.64	-0.000905067	0.00410502
12.784	12.6405	-0.000533351	0.00334762
12.7845	12.6409	-0.000596237	0.00213765
12.785	12.6414	0.000928778	0.00267027
12.7854	12.6419	-0.000128158	0.00345333
12.7859	12.6423	-0.000833781	0.00404946
12.7864	12.6428	-0.000528214	0.00334328
12.7869	12.6433	-0.000535884	0.00198417
12.7873	12.6437	0.000823141	0.00271773
12.7878	12.6442	-1.85092e-06	0.00365835
12.7883	12.6447	-0.000977424	0.00398997
12.7887	12.6452	-0.000471464	0.00331869
12.7892	12.6456	-0.000552755	0.00209143
12.7897	12.6461	0.000712975	0.00272739
12.7902	12.6466	7.08442e-06	0.0036218
12.7906	12.6471	-0.000933211	0.00407888
12.7911	12.6476	-0.000542554	0.00331042
12.7916	12.648	-0.000448991	0.00210807
12.7921	12.6485	0.000828813	0.00268224
12.7925	12.649	-3.30621e-05	0.00381764
12.793	12.6494	-0.000983827	0.00400415
12.7935	12.6499	-0.000535616	0.00326264
12.7939	12.6504	-0.000560228	0.00217813
12.7944	12.6509	0.000786865	0.00291529
12.7949	12.6514	2.47588e-05	0.00375332
12.7954	12.6518	-0.000989694	0.00400538
12.7958	12.6523	-0.000544355	0.00328256
12.7963	12.6528	-0.000470197	0.00198024
12.7968	12.6532	0.000720109	0.0028426
12.7972	12.6537	-1.10538e-05	0.00373996
12.7977	12.6542	-0.00114514	0.00401595
12.7982	12.6546	-0.000444925	0.0032329
12.7987	12.6551	-0.000406312	0.00215821
12.7991	12.6556	0.000663893	0.00275042
12.7996	12.6561	6.3104e-05	0.00386091
12.8001	12.6566	-0.00110373	0.0039241
12.8006	12.657	-0.000423184	0.00316751
12.801	12.6575	-0.000316817	0.00214715
12.8015	12.658	0.000635749	0.0027945
12.802	12.6585	0.000129058	0.00379429
12.8024	12.6589	-0.00109453	0.00395835
12.8029	12.6594	-0.000496272	0.00306754
12.8034	12.6598	-0.000251862	0.00205873
12.8039	12.6603	0.000569528	0.00284383
12.8043	12.6608	0.000132125	0.00388083
12.8048	12.6613	-0.00109886	0.00377995
12.8053	12.6617	-0.000400445	0.00305885
12.8057	12.6622	-0.000198446	0.00210388
12.8062	12.6627	0.000581067	0.00279106
12.8067	12.6631	-8.10739e-05	0.00382618
12.8072	12.6636	-0.00125278	0.00387943
12.8076	12.6641	-0.000465328	0.00308172
12.8081	12.6645	-0.000155232	0.00206652
12.8086	12.665	0.000511778	0.00285892
12.8091	12.6655	0.00013546	0.00396506
12.8095	12.666	-0.00126271	0.00401005
12.81	12.6664	-0.000359763	0.00304124
12.8105	12.6669	-0.000145761	0.00209578
12.8109	12.6674	0.000470901	0.00292963
12.8114	12.6679	0.000162534	0.00402701
12.8119	12.6683	-0.00133353	0.00390885
12.8124	12.6688	-0.000403976	0.00297821
12.8128	12.6693	-0.000144495	0.00220615
12.8133	12.6697	0.00042535	0.00290128
12.8138	12.6702	0.000136459	0.00398686
12.8142	12.6707	-0.00129212	0.0038519
12.8147	12.6711	-0.000397841	0.00294176
12.8152	12.6716	-7.52062e-05	0.00216272
12.8157	12.6721	0.000391339	0.00274312
12.8161	12.6725	0.000174804	0.00405987
12.8166	12.673	-0.00140976	0.00380175
12.8171	12.6735	-0.000402175	0.00294922
12.8176	12.6739	9.0445e-05	0.0021456
12.818	12.6744	0.000277837	0.00282376
12.8185	12.6749	0.000139527	0.00410535
12.819	12.6754	-0.00140743	0.00376906
12.8194	12.6759	-0.000354894	0.00294315
12.8199	12.6764	0.000123458	0.00214903
12.8204	12.6768	0.000331788	0.00298379
12.8209	12.6773	0.000161	0.00413305
12.8213	12.6778	-0.00141283	0.0037085
12.8218	12.6783	-0.000332422	0.00292028
12.8223	12.6787	0.000141061	0.00227793
12.8227	12.6792	0.00035426	0.00299421
12.8232	12.6797	0.000156131	0.00412714
12.8237	12.6801	-0.00149052	0.00378012
12.8242	12.6806	-0.000405777	0.00275574
12.8246	12.6811	0.000291374	0.00215011
12.8251	12.6816	0.000179138	0.0028703
12.8256	12.682	0.000184542	0.00413181
12.8261	12.6825	-0.00156874	0.0037158
12.8265	12.683	-0.00037717	0.0027909
12.827	12.6834	0.000229023	0.00219558
12.8275	12.6839	0.000159466	0.00298412
12.8279	12.6844	0.000236157	0.0040865
12.8284	12.6849	-0.00150946	0.00365524
12.8289	12.6853	-0.000304279	0.00273936
12.8294	12.6858	0.000245895	0.00215682
12.8298	12.6863	0.000176338	0.00303361
12.8303	12.6868	0.000142595	0.00413009
12.8308	12.6872	-0.00133687	0.00367924
12.8312	12.6877	-0.000336489	0.00283621
12.8317	12.6882	0.000185541	0.0021923
12.8322	12.6887	0.000204482	0.00295437
12.8327	12.6891	9.29777e-05	0.00428669
12.8331	12.6896	-0.0014417	0.00373668
12.8336	12.6901	-0.000362099	0.00274312
12.8341	12.6905	0.000445557	0.00221582
12.8346	12.691	0.000118321	0.00301477
12.835	12.6915	0.000132125	0.0042685
12.8355	12.692	-0.00134661	0.00360231
12.836	12.6924	-0.000330353	0.00277426
12.8364	12.6929	0.000468029	0.00224712
12.8369	12.6933	0.000121389	0.00303206
12.8374	12.6938	8.07072e-05	0.00426989
12.8379	12.6943	-0.00140516	0.00366818
12.8383	12.6947	-0.000349026	0.00268831
12.8388	12.6952	0.000396208	0.00235341
12.8393	12.6957	5.97689e-05	0.00306631
12.8397	12.6962	5.58988e-05	0.00431504
12.8402	12.6967	-0.00136655	0.00356993
12.8407	12.6971	-0.000430586	0.0026838
12.8412	12.6976	0.000576466	0.00231358
12.8416	12.6981	0.000117786	0.0030895
12.8421	12.6985	-3.17246e-05	0.00425105
12.8426	12.699	-0.00126785	0.00362738
12.8431	12.6995	-0.000335222	0.00256687
12.8435	12.6999	0.000631148	0.00240093
12.844	12.7004	0.000140526	0.00309729
12.8445	12.7009	8.88573e-06	0.00421851
12.8449	12.7014	-0.00124358	0.00360419
12.8454	12.7018	-0.000381771	0.00257637
12.8459	12.7023	0.000640351	0.0022622
12.8464	12.7028	1.27558e-05	0.00311253
12.8468	12.7032	-3.35259e-05	0.00424998
12.8473	12.7037	-0.0012101	0.00350004
12.8478	12.7042	-0.000391438	0.00248607
12.8482	12.7047	0.000752319	0.00242084
12.8487	12.7051	6.35678e-05	0.00316906
12.8492	12.7056	-0.000166503	0.00422023
12.8497	12.7061	-0.00107252	0.00353413
12.8501	12.7066	-0.000454128	0.00248902
12.8506	12.7071	0.000735982	0.00230005
12.8511	12.7075	-5.60692e-05	0.00315612
12.8516	12.708	-0.000215318	0.00417074
12.852	12.7085	-0.00115768	0.00359673
12.8525	12.709	-0.00043772	0.00244994
12.853	12.7094	0.000848949	0.00245526
12.8534	12.7099	-3.91973e-05	0.00323724
12.8539	12.7104	-0.000241927	0.00418099
12.8544	12.7108	-0.00115408	0.00343669
12.8549	12.7113	-0.000479668	0.00249869
12.8553	12.7118	0.000847218	0.0024923
12.8558	12.7122	-0.000166236	0.00321561
12.8563	12.7127	-0.00028227	0.0042766
12.8567	12.7132	-0.00101017	0.0036327
12.8572	12.7136	-0.0004794	0.00242568
12.8577	12.7141	0.000840013	0.00251393
12.8582	12.7146	-8.95455e-05	0.0032919
12.8586	12.7151	-0.000403709	0.00419516
12.8591	12.7156	-0.000917605	0.00351389
12.8596	12.716	-0.000524879	0.00242412
12.8601	12.7165	0.000875826	0.00250025
12.8605	12.717	-1.20526e-05	0.00331337
12.861	12.7175	-0.000416782	0.00425121
12.8615	12.7179	-0.000928609	0.00342735
12.8619	12.7184	-0.000454859	0.00223262
12.8624	12.7189	0.000994464	0.0025862
12.8629	12.7193	-7.08723e-05	0.00307844
12.8634	12.7198	-0.000478134	0.00418909
12.8638	12.7203	-0.0008992	0.00349553
12.8643	12.7207	-0.000485803	0.00221533
12.8648	12.7212	0.000926976	0.00263086
12.8652	12.7217	-0.000110751	0.00326699
12.8657	12.7221	-0.000473265	0.0042154
12.8662	12.7226	-0.000804639	0.00352962
12.8667	12.7231	-0.000586767	0.002161
12.8671	12.7235	0.000986795	0.00266544
12.8676	12.724	-0.000106417	0.00335213
12.8681	12.7245	-0.000504476	0.00409461
12.8686	12.7249	-0.000885663	0.00342423
12.869	12.7254	-0.000477135	0.00223106
12.8695	12.7259	0.000920306	0.00260595
12.87	12.7264	-0.000149364	0.00344538
12.8704	12.7269	-0.000565828	0.00410814
12.8709	12.7273	-0.00076476	0.00348323
12.8714	12.7278	-0.00063205	0.00220648
12.8719	12.7283	0.00096072	0.00264192
12.8723	12.7288	-0.000163436	0.00346767
12.8728	12.7292	-0.0005883	0.00408634
12.8733	12.7297	-0.000621313	0.00344603
12.8737	12.7301	-0.000654789	0.00217362
12.8742	12.7306	0.000891431	0.00268396
12.8747	12.7311	-5.62655e-05	0.00345816
12.8752	12.7316	-0.000712075	0.00411125
12.8756	12.7321	-0.000692867	0.00337302
12.8761	12.7325	-0.000728412	0.00227015
12.8766	12.733	0.000967319	0.00260268
12.8771	12.7335	-6.45235e-06	0.00349553
12.8775	12.7339	-0.000809704	0.00415017
12.878	12.7344	-0.000714144	0.00335541
12.8785	12.7349	-0.000634582	0.00218452
12.8789	12.7354	0.00105835	0.00265217
12.8794	12.7359	-0.000245726	0.00357976
12.8799	12.7363	-0.000722009	0.00414051
12.8804	12.7368	-0.000610309	0.0032942
12.8808	12.7373	-0.000626913	0.00214281
12.8813	12.7378	0.000968657	0.00272412
12.8818	12.7383	-0.00018004	0.00346643
12.8822	12.7387	-0.000897933	0.00403045
12.8827	12.7392	-0.000587569	0.00330296
12.8832	12.7396	-0.000481201	0.0021179
12.8837	12.7401	0.000981659	0.00270715
12.8841	12.7406	-0.000112285	0.00358943
12.8846	12.7411	-0.000872322	0.00407667
12.8851	12.7415	-0.000511343	0.00330591
12.8856	12.742	-0.000484269	0.00223294
12.886	12.7425	0.00089243	0.00273018
12.8865	12.7429	-9.7482e-05	0.00348758
12.887	12.7434	-0.00091814	0.00407544
12.8874	12.7439	-0.000584769	0.00333877
12.8879	12.7443	-0.000510879	0.00215961
12.8884	12.7448	0.000820074	0.00269937
12.8889	12.7453	-9.08118e-05	0.00364574
12.8893	12.7458	-0.00096362	0.00398375
12.8898	12.7463	-0.000583699	0.00324519
12.8903	12.7467	-0.000474799	0.00189542
12.8907	12.7472	0.000860755	0.0027224
12.8912	12.7477	-9.48782e-05	0.00373078
12.8917	12.7482	-0.00103931	0.0041083
12.8922	12.7486	-0.000450258	0.00329673
12.8926	12.7491	-0.000459193	0.00215166
12.8931	12.7495	0.000791734	0.00271633
12.8936	12.75	5.81811e-06	0.00356682
12.8941	12.7505	-0.000970754	0.00410068
12.8945	12.751	-0.000484537	0.00327789
12.895	12.7514	-0.000441322	0.00222296
12.8955	12.7519	0.000796068	0.00277286
12.8959	12.7524	4.74984e-05	0.00369342
12.8964	12.7528	-0.00111167	0.00406191
12.8969	12.7533	-0.000400445	0.00322823
12.8974	12.7538	-0.000397377	0.00216927
12.8978	12.7542	0.000805806	0.00287997
12.8983	12.7547	-4.65988e-05	0.0038156
12.8988	12.7552	-0.00117149	0.00388427
