# 1304     AichiSR QXAFS
# Start     : 8.9544
# End       : 9.0544
# Dir       : Backward
# Points    : 300
# ScanTime  : 1.01549
# Date      : 13.04.23 23:09
# Ring Cur. : 0.9[mA]
12.7557	12.6122	0.00019041	0.00433184
12.7562	12.6127	-0.00141156	0.00367113
12.7566	12.6131	-0.000411913	0.00284056
12.7571	12.6136	0.000322585	0.0023634
12.7576	12.6141	0.000139794	0.00303984
12.7581	12.6146	0.000129325	0.00422818
12.7585	12.615	-0.00123591	0.00374586
12.759	12.6155	-0.000372836	0.00258727
12.7595	12.616	0.000413882	0.00232136
12.7599	12.6165	0.000114718	0.00313326
12.7604	12.6169	4.92997e-05	0.00431193
12.7609	12.6174	-0.00121877	0.0035782
12.7614	12.6179	-0.000307881	0.00267413
12.7618	12.6184	0.000608408	0.00235685
12.7623	12.6188	1.65548e-05	0.00306819
12.7628	12.6193	4.82297e-05	0.00422474
12.7632	12.6198	-0.00127325	0.00363672
12.7637	12.6202	-0.00040658	0.00260751
12.7642	12.6207	0.000484901	0.00236668
12.7647	12.6212	7.97084e-05	0.00317325
12.7651	12.6217	-3.45959e-05	0.00415033
12.7656	12.6221	-0.00127298	0.00360312
12.7661	12.6226	-0.000426787	0.00257186
12.7666	12.6231	0.000610745	0.00238225
12.767	12.6235	1.83561e-05	0.00316267
12.7675	12.624	-7.93438e-05	0.00422302
12.768	12.6245	-0.00110987	0.00356215
12.7684	12.625	-0.000353895	0.00256875
12.7689	12.6255	0.000609675	0.00249853
12.7694	12.6259	7.97084e-05	0.00318882
12.7699	12.6264	-8.9813e-05	0.00423548
12.7703	12.6269	-0.00115841	0.00353494
12.7708	12.6274	-0.00038277	0.0025295
12.7713	12.6278	0.000694034	0.00239798
12.7717	12.6283	-6.45235e-06	0.00320487
12.7722	12.6288	-0.000185444	0.00415296
12.7727	12.6292	-0.00115128	0.00359484
12.7732	12.6297	-0.000453325	0.00254196
12.7736	12.6302	0.000772793	0.00250615
12.7741	12.6307	7.63733e-05	0.00324191
12.7746	12.6311	-0.000184374	0.00426162
12.7751	12.6316	-0.00106458	0.00355576
12.7755	12.6321	-0.000455662	0.00253713
12.776	12.6325	0.0007986	0.00256891
12.7765	12.633	-0.000125091	0.00323445
12.7769	12.6335	-0.000239324	0.00425899
12.7774	12.6339	-0.00106772	0.00357289
12.7779	12.6344	-0.000507811	0.00246288
12.7784	12.6349	0.000844615	0.00247501
12.7788	12.6354	-0.000100015	0.00318136
12.7793	12.6358	-0.000303547	0.0043166
12.7798	12.6363	-0.000874659	0.00350175
12.7802	12.6368	-0.000520082	0.00243314
12.7807	12.6373	0.000814937	0.00261062
12.7812	12.6377	5.64338e-05	0.0033305
12.7817	12.6382	-0.000364097	0.0041237
12.7821	12.6387	-0.000928342	0.00352543
12.7826	12.6391	-0.000534885	0.0023212
12.7831	12.6396	0.00097959	0.00244141
12.7836	12.6401	-1.43889e-05	0.00333189
12.784	12.6405	-0.000507276	0.00427129
12.7845	12.641	-0.000936011	0.00354986
12.785	12.6415	-0.000645854	0.0024042
12.7854	12.642	0.000829544	0.00256843
12.7859	12.6424	-1.87228e-05	0.00330215
12.7864	12.6429	-0.000465061	0.00422007
12.7869	12.6433	-0.000863922	0.00348898
12.7873	12.6438	-0.000590369	0.00228056
12.7878	12.6443	0.000969656	0.00258899
12.7883	12.6447	-0.000154964	0.00334467
12.7887	12.6452	-0.0004794	0.0041746
12.7892	12.6457	-0.000818175	0.0034966
12.7897	12.6462	-0.000562226	0.00229211
12.7902	12.6467	0.00111843	0.00263725
12.7906	12.6471	-7.06048e-05	0.00347217
12.7911	12.6476	-0.000516479	0.00423376
12.7916	12.6481	-0.000691333	0.00348291
12.7921	12.6486	-0.000566292	0.00228196
12.7925	12.649	0.00111203	0.00262243
12.793	12.6495	-0.000121488	0.00338204
12.7935	12.65	-0.000670859	0.00415591
12.7939	12.6505	-0.000795632	0.00349537
12.7944	12.6509	-0.000644784	0.00231358
12.7949	12.6514	0.00102207	0.0027042
12.7954	12.6519	-0.000195111	0.00336679
12.7958	12.6524	-0.000622579	0.00426383
12.7963	12.6528	-0.000744553	0.00351265
12.7968	12.6533	-0.000660924	0.00221394
12.7972	12.6538	0.00105988	0.00260644
12.7977	12.6542	-0.000108754	0.00371333
12.7982	12.6547	-0.000659123	0.00410535
12.7987	12.6552	-0.000878725	0.00343637
12.7991	12.6557	-0.000567826	0.00219542
12.7996	12.6561	0.00102027	0.00277861
12.8001	12.6566	-4.60638e-05	0.00344227
12.8006	12.6571	-0.000654522	0.00416418
12.801	12.6576	-0.000635385	0.00340818
12.8015	12.6581	-0.000616444	0.00219435
12.802	12.6585	0.00101287	0.00261669
12.8024	12.659	-6.14019e-05	0.00359968
12.8029	12.6595	-0.000622044	0.00415205
12.8034	12.6599	-0.000574496	0.0034049
12.8039	12.6604	-0.000671126	0.00221673
12.8043	12.6609	0.000989595	0.00275493
12.8048	12.6613	-4.47975e-05	0.00362443
12.8053	12.6618	-0.000870325	0.00406159
12.8057	12.6623	-0.000527216	0.0034158
12.8062	12.6627	-0.000594239	0.00218157
12.8067	12.6632	0.000963984	0.00276508
12.8072	12.6637	-7.54737e-05	0.0036241
12.8076	12.6641	-0.000862656	0.00409289
12.8081	12.6646	-0.000564562	0.00344882
12.8086	12.6651	-0.000656323	0.00215011
12.8091	12.6656	0.000819075	0.00274779
12.8095	12.666	-2.66593e-05	0.00367285
12.81	12.6665	-0.00093701	0.0041396
12.8105	12.667	-0.000534885	0.00329281
12.8109	12.6675	-0.000441055	0.00217158
12.8114	12.6679	0.00078633	0.00277861
12.8119	12.6684	-8.90105e-05	0.00370088
12.8124	12.6689	-0.000979225	0.00414239
12.8128	12.6693	-0.000451792	0.00329206
12.8133	12.6698	-0.000522614	0.00218484
12.8138	12.6703	0.000978056	0.00271338
12.8142	12.6707	-1.49239e-05	0.00377561
12.8147	12.6712	-0.00104744	0.00413772
12.8152	12.6717	-0.000512609	0.0032992
12.8157	12.6722	-0.000439521	0.00217878
12.8161	12.6726	0.000889363	0.0027414
12.8166	12.6731	2.65601e-05	0.00366646
12.8171	12.6735	-0.00102904	0.00398203
12.8176	12.674	-0.000374834	0.00322635
12.818	12.6745	-0.000397841	0.00202432
12.8185	12.675	0.000865089	0.00274173
12.819	12.6755	-0.000104884	0.00381716
12.8194	12.6759	-0.00111573	0.00397564
12.8199	12.6764	-0.000434188	0.00318275
12.8204	12.6769	-0.000416514	0.00218935
12.8209	12.6774	0.00074465	0.00282048
12.8213	12.6779	3.4693e-05	0.00388845
12.8218	12.6783	-0.00114541	0.00404774
12.8223	12.6788	-0.000535955	0.00326371
12.8227	12.6793	-0.00028614	0.00210512
12.8232	12.6797	0.000667228	0.00280991
12.8237	12.6802	4.83009e-05	0.00394826
12.8242	12.6807	-0.00109506	0.00398031
12.8246	12.6812	-0.000433386	0.00312982
12.8251	12.6816	-0.000367967	0.00209782
12.8256	12.6821	0.000704771	0.00277861
12.8261	12.6826	1.98899e-05	0.00396678
12.8265	12.683	-0.00127525	0.0039204
12.827	12.6835	-0.000324218	0.0031689
12.8275	12.684	-0.000239859	0.00215526
12.8279	12.6844	0.000661557	0.00286563
12.8284	12.6849	0.000135193	0.00392614
12.8289	12.6854	-0.00118015	0.00391164
12.8294	12.6859	-0.000305081	0.00312719
12.8298	12.6864	-0.000111019	0.00224926
12.8303	12.6868	0.000621678	0.00284507
12.8308	12.6873	0.00014873	0.00393548
12.8312	12.6878	-0.00135454	0.00382248
12.8317	12.6883	-0.000318618	0.00306508
12.8322	12.6887	-0.000101816	0.00222049
12.8327	12.6892	0.000586667	0.0028222
12.8331	12.6897	-4.63313e-05	0.00394203
12.8336	12.6901	-0.0013228	0.00378946
12.8341	12.6906	-0.000415783	0.0030319
12.8346	12.6911	-0.000169036	0.00216911
12.835	12.6916	0.000436354	0.0029184
12.8355	12.692	6.77054e-05	0.00403979
12.836	12.6925	-0.00126478	0.00387444
12.8364	12.6929	-0.000385107	0.00310228
12.8369	12.6934	1.76248e-05	0.00205546
12.8374	12.6939	0.000618877	0.00288619
12.8379	12.6943	0.000101913	0.0041033
12.8383	12.6948	-0.00134887	0.00383412
12.8388	12.6953	-0.00035056	0.00289489
12.8393	12.6958	0.000112186	0.00218747
12.8397	12.6963	0.000462162	0.00280212
12.8402	12.6967	0.000148462	0.00411345
12.8407	12.6972	-0.00136628	0.00381592
12.8412	12.6977	-0.000277936	0.00292791
12.8416	12.6982	-2.66593e-05	0.0022032
12.8421	12.6986	0.000386006	0.00288292
12.8426	12.6991	0.000137262	0.00410969
12.8431	12.6995	-0.00152353	0.00370211
12.8435	12.7	-0.000387907	0.00300231
12.844	12.7005	-2.53218e-05	0.00219976
12.8445	12.7009	0.000276303	0.00290176
12.8449	12.7014	0.000122655	0.00399915
12.8454	12.7019	-0.00134581	0.00378462
12.8459	12.7024	-0.000366166	0.00297429
12.8464	12.7028	-1.0055e-05	0.00236463
12.8468	12.7033	0.000376803	0.00290562
12.8473	12.7038	0.000138528	0.00405348
12.8478	12.7042	-0.00146291	0.00379757
12.8482	12.7047	-0.000369965	0.00293349
12.8487	12.7052	9.22463e-05	0.00223262
12.8492	12.7057	0.000263034	0.00297413
12.8497	12.7062	0.000341526	0.00421679
12.8501	12.7067	-0.00153473	0.0037974
12.8506	12.7071	-0.000374102	0.00291578
12.8511	12.7076	0.00021702	0.00232603
12.8516	12.7081	0.000234159	0.00295126
12.852	12.7086	0.000310315	0.00420402
12.8525	12.709	-0.00149492	0.00382043
12.853	12.7095	-0.000161634	0.00287513
12.8534	12.71	0.000337121	0.00226843
12.8539	12.7104	0.000131055	0.00298863
12.8544	12.7109	0.000217484	0.00412263
12.8549	12.7114	-0.00138342	0.00373325
12.8553	12.7119	-0.000250595	0.00290579
12.8558	12.7123	0.000305446	0.00224942
12.8563	12.7128	0.000237958	0.00299142
12.8567	12.7133	0.000170738	0.00438945
12.8572	12.7137	-0.00138035	0.00362647
12.8577	12.7142	-0.000348028	0.00274419
12.8582	12.7147	0.000352726	0.00230563
12.8586	12.7151	0.000180405	0.00318324
12.8591	12.7156	0.000192211	0.00423081
12.8596	12.7161	-0.00136835	0.00358583
12.8601	12.7166	-0.000386837	0.00273625
12.8605	12.7171	0.000390804	0.00232399
12.861	12.7175	0.000124189	0.00296839
12.8615	12.718	0.000155132	0.00421073
12.8619	12.7185	-0.00143657	0.00359034
12.8624	12.7189	-0.000370232	0.00271928
12.8629	12.7194	0.000352994	0.00236635
12.8634	12.7199	0.000177141	0.00291545
12.8638	12.7203	0.000158735	0.00427956
12.8643	12.7208	-0.00126911	0.00357289
12.8648	12.7213	-0.000368698	0.00276755
12.8652	12.7218	0.000485971	0.00229006
12.8657	12.7222	0.000183276	0.00306835
12.8662	12.7227	4.2897e-05	0.00417025
12.8667	12.7231	-0.00125224	0.00356993
12.8671	12.7236	-0.000287407	0.00264332
12.8676	12.7241	0.000502576	0.00234783
12.8681	12.7246	-1.23201e-05	0.00320267
12.8686	12.725	0.00013159	0.00423408
12.869	12.7255	-0.00126478	0.00365728
12.8695	12.726	-0.000352362	0.00260751
12.87	12.7265	0.000611476	0.00241306
12.8704	12.7269	5.51675e-05	0.0031857
12.8709	12.7274	-1.25876e-05	0.00420745
12.8714	12.7279	-0.00126271	0.00355437
12.8719	12.7284	-0.000442589	0.0026679
12.8723	12.7288	0.000767389	0.00241166
12.8728	12.7293	0.000187342	0.00310614
12.8733	12.7298	-0.000132492	0.00423097
12.8737	12.7302	-0.00120703	0.00353568
12.8742	12.7307	-0.000414713	0.00249557
12.8747	12.7312	0.000659024	0.00237913
12.8752	12.7317	6.89717e-05	0.00320766
12.8756	12.7321	-0.000114621	0.00442091
12.8761	12.7326	-0.00117402	0.00368375
12.8766	12.7331	-0.000418048	0.00249885
12.8771	12.7335	0.0007986	0.00250787
12.8775	12.734	4.46983e-05	0.00323569
12.878	12.7345	-0.000180771	0.00426571
12.8785	12.735	-0.0011096	0.00369325
12.8789	12.7355	-0.000426519	0.00251458
12.8794	12.7359	0.00071911	0.0025622
12.8799	12.7364	-5.37329e-05	0.00326559
12.8804	12.7369	-0.000180308	0.00425899
12.8808	12.7374	-0.00114948	0.00349553
12.8813	12.7378	-0.000420117	0.00259366
12.8818	12.7383	0.00082241	0.00242772
12.8822	12.7388	-5.83343e-05	0.00323257
12.8827	12.7393	-0.000194647	0.004195
12.8832	12.7397	-0.00106358	0.00347963
12.8837	12.7402	-0.000484269	0.00247501
12.8841	12.7407	0.000717041	0.00243969
12.8846	12.7411	-3.07258e-05	0.00324659
12.8851	12.7416	-0.000370767	0.00418738
12.8856	12.7421	-0.000987162	0.00353117
12.886	12.7425	-0.000463063	0.00246116
12.8865	12.743	0.000765927	0.00252065
12.887	12.7435	-1.99891e-05	0.00348103
12.8874	12.7439	-0.000352362	0.00427612
12.8879	12.7444	-0.000981294	0.00356215
12.8884	12.7449	-0.000408845	0.00228121
12.8889	12.7454	0.0010016	0.00261562
12.8893	12.7459	-4.85965e-05	0.00342595
12.8898	12.7463	-0.000378436	0.00428686
12.8903	12.7468	-0.000839114	0.00353429
12.8907	12.7473	-0.00050214	0.00228867
12.8912	12.7478	0.000926976	0.00255318
12.8917	12.7482	-3.07258e-05	0.00344275
12.8922	12.7487	-0.000376368	0.00424219
12.8926	12.7492	-0.00087259	0.0034471
12.8931	12.7496	-0.000670127	0.00231669
12.8936	12.7501	0.000975791	0.00276009
12.8941	12.7506	-9.33444e-05	0.00340507
12.8945	12.751	-0.000420384	0.00415624
12.895	12.7515	-0.000909134	0.00349069
12.8955	12.752	-0.000605707	0.00223294
12.8959	12.7524	0.00102207	0.00252032
12.8964	12.7529	-0.000191776	0.0034303
12.8969	12.7534	-0.000416782	0.00427612
12.8974	12.7538	-0.000860587	0.00358583
12.8978	12.7543	-0.000584502	0.00218108
12.8983	12.7548	0.00113377	0.00270822
12.8988	12.7552	-5.73355e-05	0.00347169
