# 1304     AichiSR QXAFS
# Start     : 8.9544
# End       : 9.0544
# Dir       : Forward
# Points    : 300
# ScanTime  : 1.01549
# Date      : 13.04.24 00:04
# Ring Cur. : 1[mA]
12.7557	12.7563	0.000193745	0.00232448
12.7562	12.7558	0.000304447	0.00303361
12.7566	12.7553	0.000276036	0.00418598
12.7571	12.7548	-0.00144477	0.00369481
12.7576	12.7544	-0.000227856	0.00288088
12.7581	12.7539	0.000389805	0.00227154
12.7585	12.7534	0.000276303	0.00295921
12.759	12.7529	0.000115521	0.00419253
12.7595	12.7525	-0.00137802	0.00361648
12.7599	12.752	-0.000386105	0.0028644
12.7604	12.7516	0.000293443	0.00232915
12.7609	12.7511	0.000208281	0.00296855
12.7614	12.7506	0.000218019	0.00425948
12.7618	12.7501	-0.00134994	0.00367408
12.7623	12.7497	-0.000308149	0.00280695
12.7628	12.7492	0.000403877	0.00225458
12.7632	12.7488	0.000142862	0.00299174
12.7637	12.7483	0.000124724	0.00418647
12.7642	12.7478	-0.00132893	0.00359968
12.7647	12.7474	-0.000279738	0.00273706
12.7651	12.7469	0.000407676	0.00228727
12.7656	12.7464	0.000102983	0.00297011
12.7661	12.7459	0.000128523	0.00427145
12.7666	12.7454	-0.00131973	0.00367178
12.767	12.745	-0.000380969	0.00271305
12.7675	12.7445	0.000444291	0.00227638
12.768	12.744	0.000117519	0.00309712
12.7684	12.7435	0.000184007	0.00421991
12.7689	12.7431	-0.00123311	0.00365524
12.7694	12.7426	-0.000327286	0.00267118
12.7699	12.7421	0.000520981	0.00232743
12.7703	12.7417	0.000215218	0.00299174
12.7708	12.7412	0.000114183	0.00413567
12.7713	12.7407	-0.00127759	0.00360231
12.7717	12.7403	-0.000196912	0.0026125
12.7722	12.7398	0.000549589	0.002367
12.7727	12.7393	7.59095e-05	0.00318356
12.7732	12.7389	0.000127791	0.00439477
12.7736	12.7384	-0.00117355	0.0037303
12.7741	12.7379	-0.000231655	0.00265529
12.7746	12.7374	0.000538584	0.00241306
12.7751	12.737	0.000134194	0.0031966
12.7755	12.7365	4.87647e-05	0.00422147
12.776	12.736	-0.00116382	0.00362319
12.7765	12.7355	-0.000357427	0.00256752
12.7769	12.735	0.000608408	0.00241789
12.7774	12.7346	3.5763e-05	0.00308982
12.7779	12.7341	3.62268e-05	0.00418163
12.7784	12.7336	-0.00113667	0.0034893
12.7788	12.7331	-0.000371499	0.0025018
12.7793	12.7327	0.000710906	0.00247115
12.7798	12.7322	6.89717e-05	0.00323864
12.7802	12.7317	-7.46712e-05	0.00442977
12.7807	12.7313	-0.00124664	0.00363672
12.7812	12.7308	-0.00038277	0.00258432
12.7817	12.7303	0.000678963	0.00255769
12.7821	12.7298	7.20393e-05	0.00323692
12.7826	12.7294	-3.86623e-05	0.00423703
12.7831	12.7289	-0.00106692	0.0035578
12.7836	12.7284	-0.000362563	0.00257841
12.784	12.728	0.000705573	0.00241757
12.7845	12.7275	2.483e-06	0.00318308
12.785	12.727	-0.000140429	0.00429496
12.7854	12.7265	-0.0010976	0.00362164
12.7859	12.7261	-0.000301478	0.0025186
12.7864	12.7256	0.000896033	0.00232432
12.7869	12.7251	2.11562e-05	0.00325625
12.7873	12.7246	-0.000141695	0.00424015
12.7878	12.7242	-0.00106205	0.00359205
12.7883	12.7237	-0.000458462	0.0024596
12.7887	12.7232	0.000805538	0.00245461
12.7892	12.7228	8.73774e-05	0.00333517
12.7897	12.7223	-0.000257729	0.00416606
12.7902	12.7218	-0.00104798	0.00353568
12.7906	12.7214	-0.00044439	0.00248919
12.7911	12.7209	0.000906769	0.00251147
12.7916	12.7204	-1.56552e-05	0.00332959
12.7921	12.72	-0.000175706	0.00428095
12.7925	12.7195	-0.00100503	0.00361353
12.793	12.719	-0.00049654	0.00235685
12.7935	12.7186	0.000829277	0.0025068
12.7939	12.7181	0.000173003	0.0033917
12.7944	12.7176	-0.000303012	0.00422351
12.7949	12.7172	-0.000975355	0.00354395
12.7954	12.7167	-0.000341357	0.00242208
12.7958	12.7162	0.000968924	0.00245977
12.7963	12.7157	1.5021e-05	0.00339326
12.7968	12.7152	-0.000261332	0.00418598
12.7972	12.7148	-0.000819174	0.00352683
12.7977	12.7143	-0.000501676	0.00241634
12.7982	12.7138	0.00103128	0.00249713
12.7987	12.7133	7.35732e-05	0.00344989
12.7991	12.7129	-0.000385303	0.00421105
12.7996	12.7124	-0.000872857	0.00221812
12.8001	12.7119	-0.000445924	0.00254228
12.8006	12.7115	0.000912102	0.00271928
12.801	12.711	9.50465e-05	0.00340104
12.8015	12.7105	-0.000368163	0.00430259
12.802	12.71	-0.00086979	0.00350831
12.8024	12.7096	-0.000481736	0.00222967
12.8029	12.7091	0.000941245	0.00264037
12.8034	12.7086	5.61663e-05	0.00334328
12.8039	12.7082	-0.000465596	0.00423269
12.8043	12.7077	-0.000794901	0.00361976
12.8048	12.7072	-0.000465863	0.00235513
12.8053	12.7067	0.0008963	0.00264176
12.8057	12.7063	4.13632e-05	0.00336663
12.8062	12.7058	-0.000443124	0.00417959
12.8067	12.7053	-0.00081764	0.00342702
12.8072	12.7048	-0.000436721	0.00211602
12.8076	12.7043	0.00102821	0.0027174
12.8081	12.7039	-5.45354e-05	0.003399
12.8086	12.7034	-0.000466862	0.00420794
12.8091	12.7029	-0.000659123	0.00350192
12.8095	12.7025	-0.000568165	0.00223262
12.81	12.702	0.000913903	0.0026402
12.8105	12.7015	6.49053e-05	0.00341613
12.8109	12.701	-0.000577368	0.00416123
12.8114	12.7006	-0.000676263	0.00355625
12.8119	12.7001	-0.000647655	0.00221426
12.8124	12.6996	0.00104201	0.00259055
12.8128	12.6992	-6.57359e-05	0.0034857
12.8133	12.6987	-0.00053542	0.00410019
12.8138	12.6982	-0.000651454	0.00345505
12.8142	12.6978	-0.000501676	0.00213953
12.8147	12.6973	0.00107909	0.00259554
12.8152	12.6968	-6.5272e-05	0.00344259
12.8157	12.6964	-0.000613376	0.00425588
12.8161	12.6959	-0.000557357	0.00341006
12.8166	12.6954	-0.000671394	0.00209889
12.8171	12.6949	0.00104968	0.00282638
12.8176	12.6944	2.3225e-05	0.00347013
12.818	12.694	-0.000696202	0.00404398
12.8185	12.6935	-0.000503406	0.00351405
12.819	12.693	-0.000602105	0.00216256
12.8194	12.6926	0.0010172	0.00273378
12.8199	12.6921	-7.70075e-05	0.00356543
12.8204	12.6916	-0.000711808	0.00406905
12.8209	12.6912	-0.000607241	0.00340662
12.8213	12.6907	-0.00054382	0.00215698
12.8218	12.6902	0.0010957	0.00282376
12.8223	12.6898	-0.000123824	0.00360607
12.8227	12.6893	-0.000762156	0.00418861
12.8232	12.6888	-0.00052108	0.00352167
12.8237	12.6884	-0.00051828	0.00209578
12.8242	12.6879	0.00106422	0.00266216
12.8246	12.6874	-5.84616e-07	0.00361508
12.8251	12.6869	-0.00072101	0.00418754
12.8256	12.6865	-0.000601908	0.00329436
12.8261	12.686	-0.000539486	0.00209143
12.8265	12.6855	0.00105888	0.00267413
12.827	12.685	8.42192e-06	0.00358427
12.8275	12.6845	-0.000782095	0.00412961
12.8279	12.6841	-0.000587569	0.00335401
12.8284	12.6836	-0.000648654	0.00210544
12.8289	12.6831	0.000941512	0.00277737
12.8294	12.6827	3.95619e-05	0.00357928
12.8298	12.6822	-0.000921939	0.00397129
12.8303	12.6817	-0.000477866	0.00319816
12.8308	12.6812	-0.0004682	0.0020939
12.8312	12.6808	0.00095965	0.00263816
12.8317	12.6803	-1.95253e-05	0.00360591
12.8322	12.6798	-0.000965688	0.00412945
12.8327	12.6794	-0.00048607	0.00320611
12.8331	12.6789	-0.000594971	0.00222795
12.8336	12.6784	0.000905236	0.00269593
12.8341	12.6779	8.88573e-06	0.00362631
12.8346	12.6775	-0.000856253	0.0040493
12.835	12.677	-0.000408042	0.00329984
12.8355	12.6765	-0.000468128	0.00215371
12.836	12.676	0.000842082	0.00274419
12.8364	12.6755	-1.45852e-05	0.00360123
12.8369	12.6751	-0.00097589	0.00404323
12.8374	12.6746	-0.000499875	0.00323741
12.8379	12.6741	-0.000371035	0.00215027
12.8383	12.6736	0.000891895	0.00281286
12.8388	12.6732	0.000160733	0.00375472
12.8393	12.6727	-0.000970022	0.00401955
12.8397	12.6722	-0.000357427	0.00328723
12.8402	12.6718	-0.000388174	0.00215805
12.8407	12.6713	0.000891164	0.00276116
12.8412	12.6708	7.74433e-05	0.00376455
12.8416	12.6704	-0.000934745	0.00387304
12.8421	12.6699	-0.000401176	0.00307876
12.8426	12.6694	-0.000301746	0.00218001
12.8431	12.669	0.000828813	0.0028113
12.8435	12.6685	2.67564e-05	0.00385157
12.844	12.668	-0.00104058	0.00401316
12.8445	12.6676	-0.00030328	0.00316842
12.8449	12.6671	-0.000334955	0.00212519
12.8454	12.6666	0.00074465	0.00287481
12.8459	12.6661	-1.79203e-05	0.00392614
12.8464	12.6657	-0.00113054	0.0040348
12.8468	12.6652	-0.000285338	0.00314866
12.8473	12.6647	-0.000285605	0.00220755
12.8478	12.6642	0.000626814	0.00287186
12.8482	12.6638	5.87701e-05	0.00382994
12.8487	12.6633	-0.00116148	0.00395776
12.8492	12.6628	-0.000382503	0.00321405
12.8497	12.6624	-0.000149096	0.00218452
12.8501	12.6619	0.000688434	0.00276771
12.8506	12.6614	4.54296e-05	0.00381576
12.8511	12.661	-0.00112727	0.00390139
12.8516	12.6605	-0.00027667	0.00309138
12.852	12.66	-0.000159833	0.00213454
12.8525	12.6595	0.000746986	0.00273141
12.853	12.6591	0.000101449	0.00393548
12.8534	12.6586	-0.00114614	0.00392475
12.8539	12.6582	-0.000324218	0.00308639
12.8544	12.6577	-0.000128426	0.00216895
12.8549	12.6572	0.000701971	0.00275074
12.8553	12.6567	8.43098e-05	0.00381609
12.8558	12.6562	-0.00124891	0.00380019
12.8563	12.6558	-0.000241927	0.00301493
12.8567	12.6553	-0.000131761	0.00208708
12.8572	12.6548	0.000492838	0.00291062
12.8577	12.6543	0.000181207	0.00398874
12.8582	12.6539	-0.00131206	0.00382666
12.8586	12.6534	-0.00028614	0.00309401
12.8591	12.6529	-4.07311e-05	0.00220476
12.8596	12.6524	0.000518912	0.00284899
12.8601	12.652	0.000141328	0.00398219
12.8605	12.6515	-0.00125638	0.00375816
12.861	12.651	-0.000316282	0.00294831
12.8615	12.6506	-5.21991e-05	0.00211929
12.8619	12.6501	0.000554725	0.00276271
12.8624	12.6496	0.000150531	0.00398203
12.8629	12.6491	-0.00130132	0.00385313
12.8634	12.6487	-0.000350828	0.00297912
12.8638	12.6482	6.56366e-05	0.00220492
12.8643	12.6477	0.000500774	0.00284244
12.8648	12.6473	-2.12554e-05	0.00408044
12.8652	12.6468	-0.00137368	0.00374087
12.8657	12.6463	-0.000305812	0.00287964
12.8662	12.6458	8.68424e-05	0.00224196
12.8667	12.6453	0.000473968	0.00284695
12.8671	12.6448	0.000147998	0.00403947
12.8676	12.6444	-0.0014141	0.00378897
12.8681	12.6439	-0.000350293	0.00292603
12.8686	12.6434	3.59593e-05	0.00217255
12.869	12.643	0.000499508	0.00283401
12.8695	12.6425	0.000209351	0.00414845
12.87	12.6421	-0.00133434	0.00372939
12.8704	12.6416	-0.00028894	0.00296806
12.8709	12.6411	0.000104249	0.00217206
12.8714	12.6406	0.000340188	0.00280942
12.8719	12.6402	0.000204749	0.00422523
12.8723	12.6397	-0.00138722	0.00375832
12.8728	12.6392	-0.000187442	0.00277098
12.8733	12.6388	0.000177337	0.00217969
12.8737	12.6383	0.00046423	0.00290439
12.8742	12.6378	0.000168937	0.00412059
12.8747	12.6374	-0.00147752	0.0038287
12.8752	12.6369	-0.000219919	0.00293118
12.8756	12.6364	0.00024816	0.00221238
12.8761	12.6359	0.000276838	0.00291529
12.8766	12.6355	0.000251495	0.00413272
12.8771	12.635	-0.0012149	0.00366958
12.8775	12.6345	-0.000289743	0.002804
12.878	12.634	0.0002615	0.00218919
12.8785	12.6336	0.000309316	0.00286359
12.8789	12.6331	0.00021875	0.00414534
12.8794	12.6326	-0.00137782	0.00371628
12.8799	12.6322	-0.000161902	0.00291373
12.8804	12.6317	0.000302646	0.00227203
12.8808	12.6312	0.000329255	0.00291513
12.8813	12.6307	0.000244361	0.00424777
12.8818	12.6303	-0.00140949	0.00374898
12.8822	12.6298	-0.000295343	0.00270527
12.8827	12.6293	0.000307514	0.00222656
12.8832	12.6289	0.000191676	0.00295937
12.8837	12.6284	0.0002615	0.00424219
12.8841	12.6279	-0.0013246	0.00368998
12.8846	12.6275	-0.000371302	0.00286612
12.8851	12.627	0.000379336	0.00229973
12.8856	12.6265	0.000178407	0.00301461
12.886	12.626	0.000191944	0.00418319
12.8865	12.6255	-0.0012231	0.00358985
12.887	12.6251	-0.00030221	0.00278033
12.8874	12.6246	0.000401344	0.00226564
12.8879	12.6241	0.000166672	0.00311613
12.8884	12.6236	0.000276571	0.00430865
12.8889	12.6232	-0.00135808	0.00369621
12.8893	12.6227	-0.000304814	0.00279401
12.8898	12.6222	0.000560058	0.002284
12.8903	12.6218	8.91787e-05	0.00312719
12.8907	12.6213	0.000159466	0.00424187
12.8912	12.6208	-0.00132053	0.00369309
12.8917	12.6203	-0.00030888	0.00273469
12.8922	12.6198	0.000497172	0.00236619
12.8926	12.6194	7.15043e-05	0.00294348
12.8931	12.6189	0.000130324	0.00424138
12.8936	12.6184	-0.00126351	0.0036604
12.8941	12.618	-0.000361832	0.002662
12.8945	12.6175	0.000494371	0.00234579
12.895	12.617	0.000212418	0.0030509
12.8955	12.6165	0.000139794	0.00423236
12.8959	12.6161	-0.00129779	0.00355297
12.8964	12.6156	-0.000311948	0.00265422
12.8969	12.6151	0.00055419	0.00239872
12.8974	12.6146	0.000190945	0.0031149
12.8978	12.6142	6.2569e-05	0.00420015
12.8983	12.6137	-0.00115535	0.00364638
12.8988	12.6132	-0.000226054	0.0026044
