# 1304     AichiSR QXAFS
# Start     : 8.9544
# End       : 9.0544
# Dir       : Forward
# Points    : 300
# ScanTime  : 1.01549
# Date      : 13.04.24 00:17
# Ring Cur. : 1[mA]
12.7557	12.7563	4.90322e-05	0.00307597
12.7562	12.7558	7.17718e-05	0.0042721
12.7566	12.7553	-0.00112927	0.0036758
12.7571	12.7548	-0.00032222	0.00262947
12.7576	12.7544	0.000700704	0.00244887
12.7581	12.7539	0.000103251	0.00320938
12.7585	12.7534	-2.38592e-05	0.00428235
12.759	12.753	-0.00107125	0.00360607
12.7595	12.7525	-0.000422382	0.00256113
12.7599	12.752	0.000718575	0.0024814
12.7604	12.7516	0.000103982	0.00326355
12.7609	12.7511	-0.000176241	0.00420311
12.7614	12.7506	-0.00113314	0.00364171
12.7618	12.7502	-0.000379703	0.00275574
12.7623	12.7497	0.000734983	0.00252204
12.7628	12.7492	5.61663e-05	0.00316546
12.7632	12.7488	-0.000130958	0.00422147
12.7637	12.7483	-0.00109859	0.00353305
12.7642	12.7478	-0.000396842	0.0025812
12.7647	12.7474	0.000784796	0.00246787
12.7651	12.7469	4.31645e-05	0.00328207
12.7656	12.7464	-0.000136291	0.00430742
12.7661	12.7459	-0.000980759	0.0034784
12.7666	12.7455	-0.000532085	0.00246411
12.767	12.745	0.000874024	0.00256907
12.7675	12.7445	4.01681e-06	0.00337565
12.768	12.744	-0.000255732	0.00423113
12.7684	12.7436	-0.00102931	0.00353305
12.7689	12.7431	-0.000502407	0.00244887
12.7694	12.7426	0.000842813	0.00259833
12.7699	12.7422	-8.52115e-07	0.00324675
12.7703	12.7417	-0.000308149	0.00425932
12.7708	12.7412	-0.000878993	0.00356371
12.7713	12.7407	-0.000470197	0.00233382
12.7717	12.7403	0.000972723	0.00247845
12.7722	12.7398	-9.90158e-05	0.00335696
12.7727	12.7393	-0.000306615	0.004273
12.7732	12.7389	-0.00102911	0.00347668
12.7736	12.7384	-0.000518013	0.00225147
12.7741	12.7379	0.000876093	0.00258727
12.7746	12.7375	-8.74767e-05	0.00338778
12.7751	12.737	-0.000430853	0.00414223
12.7755	12.7365	-0.000748886	0.00345784
12.776	12.736	-0.000476868	0.00237135
12.7765	12.7355	0.00109316	0.00255409
12.7769	12.7351	5.28312e-05	0.00353396
12.7774	12.7346	-0.000510879	0.00413133
12.7779	12.7341	-0.000790567	0.00354428
12.7784	12.7336	-0.000550758	0.00230268
12.7788	12.7331	0.000949449	0.00271944
12.7793	12.7327	-6.26682e-05	0.00351453
12.7798	12.7322	-0.000461726	0.00420466
12.7802	12.7318	-0.000777226	0.00349381
12.7807	12.7313	-0.00064712	0.00223901
12.7812	12.7308	0.00106195	0.00265438
12.7817	12.7303	-7.90763e-05	0.00352994
12.7821	12.7298	-0.000655324	0.00426194
12.7826	12.7294	-0.000679598	0.00364311
12.7831	12.7289	-0.00069647	0.00226081
12.7836	12.7284	0.00110363	0.00264815
12.784	12.728	-4.57963e-05	0.00362459
12.7845	12.7275	-0.000673195	0.00416681
12.785	12.727	-0.000656591	0.00349725
12.7854	12.7266	-0.000655859	0.00220615
12.7859	12.7261	0.000932309	0.00274419
12.7864	12.7256	-9.08118e-05	0.00356526
12.7869	12.7251	-0.000715143	0.00413944
12.7873	12.7247	-0.000630248	0.00336475
12.7878	12.7242	-0.000573961	0.00220255
12.7883	12.7237	0.00113297	0.0027523
12.7887	12.7232	-6.98735e-05	0.00353961
12.7892	12.7228	-0.00073148	0.00403636
12.7897	12.7223	-0.000578099	0.00340555
12.7902	12.7219	-0.000629446	0.00218329
12.7906	12.7214	0.000938979	0.00264783
12.7911	12.7209	-0.000143229	0.0035687
12.7916	12.7204	-0.00073535	0.00419934
12.7921	12.72	-0.000686464	0.00337237
12.7925	12.7195	-0.000565561	0.0022622
12.793	12.719	0.000962718	0.00294954
12.7935	12.7186	2.57576e-05	0.00363328
12.7939	12.7181	-0.000763957	0.0041455
12.7944	12.7176	-0.000453593	0.00338671
12.7949	12.7172	-0.000440324	0.00219091
12.7954	12.7167	0.000924908	0.00270731
12.7958	12.7162	-4.91854e-06	0.00366383
12.7963	12.7157	-0.00100503	0.00422474
12.7968	12.7153	-0.000459193	0.00348962
12.7972	12.7148	-0.000447458	0.00213347
12.7977	12.7143	0.000811673	0.00271977
12.7982	12.7138	3.60305e-05	0.0037675
12.7987	12.7133	-0.000988428	0.00403201
12.7991	12.7129	-0.000430586	0.00334295
12.7996	12.7124	-0.000423648	0.00219058
12.8001	12.712	0.000913903	0.00277721
12.8006	12.7115	8.91787e-05	0.00379445
12.801	12.711	-0.000892262	0.0040879
12.8015	12.7105	-0.000413714	0.00333656
12.802	12.7101	-0.000456928	0.00213765
12.8024	12.7096	0.000857153	0.00294954
12.8029	12.7091	1.09545e-05	0.0037675
12.8034	12.7087	-0.00115281	0.00406143
12.8039	12.7082	-0.000310146	0.00333796
12.8043	12.7077	-0.0003677	0.00216288
12.8048	12.7072	0.000732914	0.00287964
12.8053	12.7068	3.16253e-05	0.00386746
12.8057	12.7063	-0.00103904	0.00395744
12.8062	12.7058	-0.000411181	0.00319832
12.8067	12.7053	-0.000319884	0.00227917
12.8072	12.7048	0.000698368	0.00273083
12.8076	12.7043	0.000124189	0.00375381
12.8081	12.7039	-0.00102244	0.00395679
12.8086	12.7034	-0.000312215	0.00318275
12.8091	12.7029	-0.000222719	0.00231063
12.8095	12.7025	0.000698903	0.00274714
12.81	12.702	0.000145662	0.00382854
12.8105	12.7015	-0.00119676	0.00400538
12.8109	12.7011	-0.000372836	0.00318603
12.8114	12.7006	-0.0001517	0.00224631
12.8119	12.7001	0.000683565	0.0028921
12.8124	12.6996	0.000121656	0.00399513
12.8128	12.6992	-0.00116355	0.00403061
12.8133	12.6987	-0.000292276	0.00322839
12.8138	12.6983	-9.23456e-05	0.00218919
12.8142	12.6978	0.000682031	0.00291234
12.8147	12.6973	9.37802e-05	0.00404307
12.8152	12.6968	-0.00122463	0.00403808
12.8157	12.6964	-0.000375101	0.00323241
12.8161	12.6959	-6.22044e-05	0.00218747
12.8166	12.6954	0.000660023	0.00286112
12.8171	12.6949	7.87096e-05	0.00393097
12.8176	12.6945	-0.00133967	0.00392491
12.818	12.694	-0.000242659	0.00297118
12.8185	12.6935	-4.96665e-05	0.00215231
12.819	12.693	0.00064242	0.00291111
12.8194	12.6926	0.000227489	0.00410814
12.8199	12.6921	-0.00133867	0.00392475
12.8204	12.6917	-0.000373032	0.00300387
12.8209	12.6912	-9.46819e-05	0.00208332
12.8213	12.6907	0.000465229	0.00282934
12.8218	12.6902	0.0001666	0.00410019
12.8223	12.6898	-0.00135961	0.00389549
12.8227	12.6893	-0.000356696	0.002962
12.8232	12.6889	7.61942e-06	0.00208971
12.8237	12.6884	0.000437621	0.00286252
12.8242	12.6879	4.80334e-05	0.00419484
12.8246	12.6874	-0.00150486	0.00381265
12.8251	12.687	-0.000373567	0.00295454
12.8256	12.6865	1.96224e-05	0.002161
12.8261	12.686	0.000414881	0.00285301
12.8265	12.6855	0.000195011	0.00404414
12.827	12.685	-0.00149385	0.00383354
12.8275	12.6846	-0.000307881	0.00290283
12.8279	12.6841	0.000162534	0.00215043
12.8284	12.6836	0.000399543	0.00292012
12.8289	12.6831	0.000184275	0.00416418
12.8294	12.6827	-0.00139696	0.00382199
12.8298	12.6822	-0.000218385	0.00294471
12.8303	12.6817	0.000133124	0.00223123
12.8308	12.6813	0.000456294	0.0029992
12.8312	12.6808	0.000260965	0.00416263
12.8317	12.6803	-0.00144477	0.00364671
12.8322	12.6798	-0.000282805	0.00286219
12.8327	12.6794	0.000268367	0.00224303
12.8331	12.6789	0.000366798	0.0030341
12.8336	12.6784	0.000283972	0.00427972
12.8341	12.678	-0.00148772	0.00369744
12.8346	12.6775	-0.000165968	0.00294659
12.835	12.677	0.000281975	0.00234627
12.8355	12.6765	0.000248427	0.0029883
12.836	12.676	0.000326919	0.00426571
12.8364	12.6756	-0.00149592	0.00374914
12.8369	12.6751	-0.00038944	0.00291078
12.8374	12.6746	0.000302646	0.00228539
12.8379	12.6741	0.00021875	0.00298052
12.8383	12.6737	0.000294976	0.00435756
12.8388	12.6732	-0.00149746	0.00360312
12.8393	12.6727	-0.000284874	0.00291545
12.8397	12.6723	0.000233089	0.00228556
12.8402	12.6718	0.000261233	0.00303238
12.8407	12.6713	0.000331788	0.00431799
12.8412	12.6709	-0.00137115	0.00357289
12.8416	12.6704	-0.00032115	0.00274108
12.8421	12.6699	0.00041695	0.00226253
12.8426	12.6694	0.000224689	0.0030101
12.8431	12.669	0.000156399	0.00432159
12.8435	12.6685	-0.00131386	0.00377029
12.844	12.6681	-0.000253128	0.00280368
12.8445	12.6676	0.00041028	0.00240839
12.8449	12.6671	0.000231288	0.00305353
12.8454	12.6666	8.81799e-05	0.00427891
12.8459	12.6662	-0.00132487	0.00365852
12.8464	12.6657	-0.000396307	0.00272256
12.8468	12.6652	0.000526581	0.00234209
12.8473	12.6647	0.000133392	0.00316079
12.8478	12.6643	0.000187342	0.00430152
12.8482	12.6638	-0.00123104	0.00352355
12.8487	12.6633	-0.000397841	0.00278655
12.8492	12.6628	0.000522783	0.00240839
12.8497	12.6624	1.80886e-05	0.00318168
12.8501	12.6619	5.67013e-05	0.00432266
12.8506	12.6615	-0.00116202	0.00360279
12.8511	12.661	-0.000298678	0.00258399
12.8516	12.6605	0.000508176	0.00239438
12.852	12.66	0.000161	0.00320192
12.8525	12.6596	-3.89298e-05	0.00436905
12.853	12.6591	-0.00125404	0.00364515
12.8534	12.6586	-0.000321418	0.00264955
12.8539	12.6582	0.000715775	0.00233833
12.8544	12.6577	3.5228e-05	0.00319209
12.8549	12.6572	-0.000129157	0.00430242
12.8553	12.6567	-0.00121137	0.00360467
12.8558	12.6563	-0.000386373	0.00253917
12.8563	12.6558	0.000659559	0.00255753
12.8567	12.6553	0.000136192	0.00326387
12.8572	12.6548	1.30233e-05	0.00415951
12.8577	12.6543	-0.000996097	0.00354519
12.8582	12.6539	-0.000254394	0.00260407
12.8586	12.6534	0.000859685	0.00244092
12.8591	12.6529	5.49e-05	0.00327461
12.8596	12.6525	-0.000127891	0.00433405
12.8601	12.652	-0.00107946	0.00351126
12.8605	12.6515	-0.000442856	0.00246025
12.861	12.6511	0.000963253	0.0025935
12.8615	12.6506	0.000122923	0.00318742
12.8619	12.6501	-0.000250863	0.00429013
12.8624	12.6496	-0.000983827	0.00345317
12.8629	12.6492	-0.000574229	0.00239347
12.8634	12.6487	0.000898833	0.00248017
12.8638	12.6482	-1.31226e-05	0.00330682
12.8643	12.6477	-0.000307614	0.00414813
12.8648	12.6473	-0.0010073	0.00364671
12.8652	12.6468	-0.000490404	0.00247877
12.8657	12.6463	0.000868959	0.00250008
12.8662	12.6458	9.42073e-06	0.00332878
12.8667	12.6453	-0.000348295	0.00426104
12.8671	12.6449	-0.000918872	0.00344898
12.8676	12.6444	-0.000447458	0.0024428
12.8681	12.6439	0.000904968	0.0025331
12.8686	12.6435	2.483e-06	0.0032606
12.869	12.643	-0.000442589	0.00423285
12.8695	12.6425	-0.000892529	0.00357214
12.87	12.6421	-0.000430318	0.00226564
12.8704	12.6416	0.0010172	0.0025418
12.8709	12.6411	7.08442e-06	0.0034253
12.8714	12.6407	-0.000373567	0.00414566
12.8719	12.6402	-0.000922938	0.00351453
12.8723	12.6397	-0.000442054	0.0023357
12.8728	12.6393	0.00100827	0.00260783
12.8733	12.6388	-0.000143229	0.00332754
12.8737	12.6383	-0.000369233	0.00419065
12.8742	12.6379	-0.000873392	0.00347094
12.8747	12.6374	-0.000556626	0.00215526
12.8752	12.6369	0.00103841	0.00267553
12.8756	12.6364	-4.29962e-05	0.00349537
12.8761	12.636	-0.000515677	0.00420032
12.8766	12.6355	-0.000807902	0.00356043
12.8771	12.635	-0.00059597	0.00225163
12.8775	12.6345	0.0010098	0.00259194
12.878	12.634	-0.00014783	0.00340179
12.8785	12.6336	-0.00065099	0.00421508
12.8789	12.6331	-0.000799235	0.0034725
12.8794	12.6326	-0.000553558	0.00212396
12.8799	12.6322	0.00102667	0.00270248
12.8804	12.6317	2.88252e-05	0.00343137
12.8808	12.6312	-0.000594436	0.00427751
12.8813	12.6308	-0.000608775	0.00341457
12.8818	12.6303	-0.00051161	0.00236045
12.8822	12.6298	0.000878626	0.00269609
12.8827	12.6293	5.0566e-05	0.00364295
12.8832	12.6289	-0.000603175	0.00431848
12.8837	12.6284	-0.000622579	0.00356698
12.8841	12.6279	-0.000625379	0.00229366
12.8846	12.6275	0.00105682	0.00268347
12.8851	12.627	7.61942e-06	0.00360386
12.8856	12.6265	-0.000765491	0.00418147
12.886	12.626	-0.000506545	0.00347201
12.8865	12.6256	-0.000549224	0.00219091
12.887	12.6251	0.00099853	0.00272395
12.8874	12.6246	-8.41415e-05	0.00362614
12.8879	12.6241	-0.000880794	0.00403078
12.8884	12.6236	-0.000566827	0.00335401
12.8889	12.6232	-0.000591636	0.00216535
12.8893	12.6227	0.00106142	0.00276771
12.8898	12.6222	-8.39452e-05	0.00359828
12.8903	12.6218	-0.000921208	0.00415484
12.8907	12.6213	-0.000623846	0.00340195
12.8912	12.6208	-0.000513679	0.00220508
12.8917	12.6203	0.000964787	0.00269813
12.8922	12.6199	8.09747e-05	0.00372858
12.8926	12.6194	-0.000878993	0.00408929
12.8931	12.6189	-0.000478134	0.00334795
12.8936	12.6185	-0.00059984	0.00215617
12.8941	12.618	0.000856618	0.0027573
12.8945	12.6175	-1.13213e-05	0.00358985
12.895	12.617	-0.000963887	0.00415312
12.8955	12.6166	-0.000530818	0.00331353
12.8959	12.6161	-0.000487337	0.00228351
12.8964	12.6156	0.000905236	0.00277861
12.8969	12.6151	7.08442e-06	0.00376095
12.8974	12.6147	-0.00102497	0.00423892
12.8978	12.6142	-0.000437987	0.00330312
12.8983	12.6137	-0.000412715	0.00207758
12.8988	12.6133	0.000936643	0.00284367
