# 1304     AichiSR QXAFS
# Start     : 8.9544
# End       : 9.0544
# Dir       : Backward
# Points    : 300
# ScanTime  : 1.01549
# Date      : 13.04.23 22:40
# Ring Cur. : 0.9[mA]
12.7557	12.612	-0.000160368	0.00335713
12.7562	12.6124	-0.000370767	0.0042467
12.7566	12.6129	-0.00092094	0.00342751
12.7571	12.6133	-0.000543553	0.00228277
12.7576	12.6138	0.000867354	0.0025127
12.7581	12.6143	-0.000108219	0.00334451
12.7585	12.6147	-0.000473532	0.00424015
12.759	12.6152	-0.000855183	0.00348807
12.7595	12.6157	-0.000701071	0.00231965
12.7599	12.6162	0.00084515	0.00265298
12.7604	12.6166	-7.98076e-05	0.00336926
12.7609	12.6171	-0.000521348	0.00420638
12.7614	12.6176	-0.000847781	0.00348447
12.7618	12.6181	-0.000621045	0.00228228
12.7623	12.6185	0.000920841	0.00255769
12.7628	12.619	-0.000126821	0.0033509
12.7632	12.6195	-0.000587837	0.00411297
12.7637	12.6199	-0.00083198	0.00331058
12.7642	12.6204	-0.000680864	0.00228056
12.7647	12.6209	0.00108243	0.00251549
12.7651	12.6214	-9.38794e-05	0.00341457
12.7656	12.6219	-0.000522614	0.00414378
12.7661	12.6223	-0.000882863	0.00345693
12.7666	12.6228	-0.000647388	0.00228121
12.767	12.6232	0.00103154	0.00258523
12.7675	12.6237	-0.00011455	0.00349209
12.768	12.6242	-0.000633583	0.00421696
12.7684	12.6247	-0.000823776	0.0035206
12.7689	12.6252	-0.000629981	0.00215633
12.7694	12.6256	0.00103074	0.0026357
12.7699	12.6261	-9.72145e-05	0.00353896
12.7703	12.6266	-0.000557089	0.00410781
12.7708	12.6271	-0.000846783	0.00345177
12.7713	12.6276	-0.00063098	0.00212503
12.7717	12.628	0.000834145	0.00263816
12.7722	12.6285	-0.000124288	0.00342112
12.7727	12.629	-0.00076649	0.00412247
12.7732	12.6294	-0.000675264	0.00339417
12.7736	12.6299	-0.000594703	0.0021646
12.7741	12.6304	0.00102227	0.0026089
12.7746	12.6308	-0.000131422	0.00343169
12.7751	12.6313	-0.000688533	0.00415066
12.7755	12.6318	-0.000753755	0.00332443
12.776	12.6323	-0.000710274	0.00209111
12.7765	12.6327	0.000860488	0.00261964
12.7769	12.6332	-9.16143e-05	0.00351421
12.7774	12.6336	-0.000698003	0.0041201
12.7779	12.6341	-0.000702872	0.00340351
12.7784	12.6346	-0.000594971	0.0021755
12.7788	12.6351	0.000916704	0.00264128
12.7793	12.6355	-1.43889e-05	0.00366491
12.7798	12.636	-0.000788034	0.0041396
12.7802	12.6365	-0.000567095	0.00342719
12.7807	12.637	-0.000581166	0.00210512
12.7812	12.6374	0.000977592	0.00265733
12.7817	12.6379	-3.17116e-07	0.00352307
12.7821	12.6384	-0.000918604	0.00406905
12.7826	12.6389	-0.000504209	0.0034026
12.7831	12.6393	-0.000571964	0.00229457
12.7836	12.6398	0.000985457	0.0028331
12.784	12.6402	-1.94541e-05	0.00370243
12.7845	12.6407	-0.000797968	0.00404914
12.785	12.6412	-0.000667595	0.00333377
12.7854	12.6417	-0.000675995	0.00223901
12.7859	12.6421	0.000942047	0.00267773
12.7864	12.6426	-9.56807e-05	0.00366507
12.7869	12.6431	-0.000971824	0.00406642
12.7873	12.6435	-0.00056763	0.00331648
12.7878	12.644	-0.000635117	0.00218296
12.7883	12.6445	0.000746183	0.00276116
12.7887	12.6449	-8.39452e-05	0.00379847
12.7892	12.6454	-0.0010976	0.00401333
12.7897	12.6459	-0.000545621	0.00321668
12.7902	12.6464	-0.000565828	0.00209282
12.7906	12.6469	0.000880427	0.00275574
12.7911	12.6473	-5.37329e-05	0.00357444
12.7916	12.6478	-0.00103544	0.00413149
12.7921	12.6483	-0.000636651	0.00318012
12.7925	12.6488	-0.000617175	0.00202776
12.793	12.6492	0.000858686	0.00266388
12.7935	12.6497	-1.87228e-05	0.00368531
12.7939	12.6502	-0.00113494	0.0041623
12.7944	12.6507	-0.000523346	0.00330575
12.7949	12.6511	-0.000480203	0.00205046
12.7954	12.6516	0.000844615	0.00284416
12.7958	12.6521	-2.35917e-05	0.00386247
12.7963	12.6525	-0.00113901	0.00401193
12.7968	12.653	-0.00044826	0.00323757
12.7972	12.6535	-0.000520082	0.00207554
12.7977	12.654	0.000686365	0.00280647
12.7982	12.6544	6.92392e-05	0.00377405
12.7987	12.6549	-0.00118115	0.00408494
12.7991	12.6554	-0.000386837	0.00318136
12.7996	12.6559	-0.000448724	0.00209406
12.8001	12.6563	0.000683832	0.00281909
12.8006	12.6568	-4.40662e-05	0.00378012
12.801	12.6573	-0.00113694	0.00404446
12.8015	12.6578	-0.000401711	0.0032606
12.802	12.6582	-0.000442856	0.00212364
12.8024	12.6587	0.000783797	0.00281753
12.8029	12.6592	-5.94043e-05	0.00391991
12.8034	12.6596	-0.00118989	0.00392786
12.8039	12.6601	-0.00039711	0.00318152
12.8043	12.6606	-0.000361297	0.00222328
12.8048	12.6611	0.000596405	0.0027537
12.8053	12.6615	-1.41214e-05	0.00388115
12.8057	12.662	-0.00123771	0.00391664
12.8062	12.6625	-0.000343623	0.00307909
12.8067	12.6629	-0.000297876	0.00213814
12.8072	12.6634	0.000687899	0.00291078
12.8076	12.6639	-4.24612e-05	0.00384534
12.8081	12.6643	-0.00134634	0.0039263
12.8086	12.6648	-0.000348759	0.00310196
12.8091	12.6653	-0.000178239	0.00221861
12.8095	12.6658	0.000653887	0.00280024
12.81	12.6662	1.73573e-05	0.00396866
12.8105	12.6667	-0.00132027	0.00397129
12.8109	12.6672	-0.000387907	0.00302067
12.8114	12.6677	-0.000253395	0.0021719
12.8119	12.6681	0.0005864	0.00296511
12.8124	12.6686	6.28365e-05	0.00396474
12.8128	12.6691	-0.00125558	0.00377496
12.8133	12.6695	-0.000371766	0.00302846
12.8138	12.67	-0.000155767	0.00207447
12.8142	12.6704	0.000454492	0.00283277
12.8147	12.6709	4.64284e-05	0.00390451
12.8152	12.6714	-0.00125638	0.00379101
12.8157	12.6719	-0.000304011	0.00305123
12.8161	12.6723	-7.92726e-05	0.00212241
12.8166	12.6728	0.000536319	0.00277254
12.8171	12.6733	5.41687e-05	0.00400194
12.8176	12.6737	-0.00129239	0.00391728
12.818	12.6742	-0.000449526	0.00306803
12.8185	12.6747	-0.000142694	0.00212708
12.819	12.6752	0.000464427	0.0028535
12.8194	12.6757	8.30435e-05	0.00399341
12.8199	12.6761	-0.00142583	0.00385747
12.8204	12.6766	-0.000358961	0.00299346
12.8209	12.6771	7.08442e-06	0.0021769
12.8213	12.6776	0.000483367	0.00290472
12.8218	12.6781	0.000107852	0.00405799
12.8223	12.6785	-0.0014371	0.00371752
12.8227	12.679	-0.000352897	0.00302223
12.8232	12.6795	-5.38235e-06	0.00220911
12.8237	12.6799	0.000337923	0.00284523
12.8242	12.6804	2.62926e-05	0.00414878
12.8246	12.6809	-0.00145957	0.00380175
12.8251	12.6814	-0.000469198	0.00285382
12.8256	12.6818	5.20998e-05	0.00207537
12.8261	12.6823	0.000372398	0.00286891
12.8265	12.6828	0.000168402	0.00408602
12.827	12.6832	-0.00141843	0.00374914
12.8275	12.6837	-0.000373032	0.00300231
12.8279	12.6842	0.000159466	0.00220787
12.8284	12.6846	0.000374734	0.00278467
12.8289	12.6851	8.68424e-05	0.00419393
12.8294	12.6856	-0.00137909	0.00370367
12.8298	12.6861	-0.000398376	0.00296012
12.8303	12.6866	0.000144128	0.00213486
12.8308	12.687	0.000285774	0.00281549
12.8312	12.6875	6.17665e-05	0.00419999
12.8317	12.688	-0.00146218	0.00372391
12.8322	12.6885	-0.000370767	0.00292045
12.8327	12.6889	0.000167403	0.00209406
12.8331	12.6894	0.000143397	0.00285039
12.8336	12.6898	0.00011265	0.00411436
12.8341	12.6903	-0.00148979	0.00378978
12.8346	12.6908	-0.000330353	0.00286735
12.835	12.6913	0.000195011	0.00216879
12.8355	12.6917	0.000288306	0.00295142
12.836	12.6922	0.000115253	0.00428235
12.8364	12.6927	-0.00146831	0.00367146
12.8369	12.6931	-0.000267735	0.00286939
12.8374	12.6936	0.000156399	0.00209266
12.8379	12.6941	0.000191409	0.00291873
12.8383	12.6945	0.000228755	0.0043043
12.8388	12.695	-0.00151126	0.00366474
12.8393	12.6955	-0.000300676	0.0027523
12.8397	12.696	0.00023489	0.00225597
12.8402	12.6964	0.000196545	0.00302846
12.8407	12.6969	0.000219552	0.00415968
12.8412	12.6974	-0.00146084	0.00371784
12.8416	12.6979	-0.000351827	0.00292184
12.8421	12.6983	0.000335854	0.00226204
12.8426	12.6988	0.0001666	0.00302739
12.8431	12.6993	0.00019881	0.00429013
12.8435	12.6997	-0.00137882	0.00360091
12.844	12.7002	-0.000368698	0.00276304
12.8445	12.7007	0.000303912	0.00220648
12.8449	12.7011	5.5435e-05	0.00309852
12.8454	12.7016	8.53086e-05	0.0042249
12.8459	12.7021	-0.00141229	0.00369604
12.8464	12.7026	-0.000326019	0.00270388
12.8468	12.703	0.000454492	0.00229006
12.8473	12.7035	0.000160465	0.00301305
12.8478	12.704	0.00013546	0.00422925
12.8482	12.7044	-0.00145371	0.00363983
12.8487	12.7049	-0.000318618	0.0026634
12.8492	12.7054	0.000518181	0.00212101
12.8497	12.7059	5.51675e-05	0.00312703
12.8501	12.7064	9.19788e-05	0.00424359
12.8506	12.7068	-0.00133947	0.0036495
12.8511	12.7073	-0.000341892	0.00251737
12.8516	12.7078	0.00048697	0.0022745
12.852	12.7083	4.55181e-06	0.00306615
12.8525	12.7088	1.47535e-05	0.00426866
12.853	12.7092	-0.00136014	0.0036554
12.8534	12.7097	-0.000351559	0.00268954
12.8539	12.7101	0.000554457	0.00240978
12.8544	12.7106	2.57576e-05	0.00315301
12.8549	12.7111	-3.47922e-05	0.00430774
12.8553	12.7116	-0.00138875	0.00355329
12.8558	12.712	-0.000363098	0.00258727
12.8563	12.7125	0.000529917	0.00237537
12.8567	12.713	0.000108851	0.00320611
12.8572	12.7134	-2.87282e-05	0.00429529
12.8577	12.7139	-0.00118476	0.00365556
12.8582	12.7144	-0.000541555	0.00260284
12.8586	12.7149	0.000470633	0.00241166
12.8591	12.7153	5.85026e-05	0.00318775
12.8596	12.7158	-0.000141962	0.00414566
12.8601	12.7163	-0.00124204	0.00364188
12.8605	12.7168	-0.000487337	0.00263258
12.861	12.7173	0.000592535	0.00244592
12.8615	12.7177	0.000104517	0.00310179
12.8619	12.7182	-0.000101085	0.00422678
12.8624	12.7187	-0.00110807	0.00356838
12.8629	12.7191	-0.000491136	0.00241166
12.8634	12.7196	0.000699438	0.0024165
12.8638	12.7201	-7.82738e-05	0.0031499
12.8643	12.7205	-0.000102547	0.00426645
12.8648	12.721	-0.0011262	0.00358362
12.8652	12.7215	-0.000426983	0.00258367
12.8657	12.7219	0.000650552	0.00236635
12.8662	12.7224	-8.31427e-05	0.00327445
12.8667	12.7229	-9.41469e-05	0.00432996
12.8671	12.7233	-0.00112007	0.00350782
12.8676	12.7238	-0.000388905	0.0024814
12.8681	12.7243	0.000679498	0.00250041
12.8686	12.7247	7.88692e-06	0.00316112
12.869	12.7252	-0.000234258	0.00415017
12.8695	12.7257	-0.00106899	0.00364311
12.87	12.7262	-0.000561762	0.00241478
12.8704	12.7266	0.000838212	0.00240495
12.8709	12.7271	-1.87228e-05	0.00332771
12.8714	12.7276	-0.0003677	0.00425137
12.8719	12.7281	-0.000994028	0.00362861
12.8723	12.7286	-0.000526413	0.00233849
12.8728	12.729	0.000870689	0.00246239
12.8733	12.7295	-3.91973e-05	0.00331681
12.8737	12.7299	-0.000404779	0.00418582
12.8742	12.7304	-0.000893064	0.00349193
12.8747	12.7309	-0.000522614	0.00236077
12.8752	12.7314	0.000872758	0.00249836
12.8756	12.7319	-0.000113088	0.00329157
12.8761	12.7323	-0.000440056	0.00417508
12.8766	12.7328	-0.000943413	0.00358722
12.8771	12.7333	-0.000456393	0.00237381
12.8775	12.7337	0.000836482	0.00243936
12.878	12.7342	-5.32691e-05	0.00336163
12.8785	12.7347	-0.000415515	0.00430259
12.8789	12.7352	-0.000996828	0.00349413
12.8794	12.7356	-0.000544623	0.00229678
12.8799	12.7361	0.00094458	0.00257514
12.8804	12.7366	3.553e-06	0.00334606
12.8808	12.7371	-0.000423916	0.00418287
12.8813	12.7376	-0.000882863	0.00354986
12.8818	12.738	-0.000515677	0.00227498
12.8822	12.7385	0.0011087	0.00258104
12.8827	12.739	-0.000111483	0.00336475
12.8832	12.7394	-0.000657126	0.00425744
12.8837	12.7399	-0.000913271	0.00342514
12.8841	12.7404	-0.000571964	0.00231063
12.8846	12.7409	0.00104428	0.00262447
12.8851	12.7413	-6.71985e-06	0.00335294
12.8856	12.7418	-0.00050988	0.00427972
12.886	12.7423	-0.000833513	0.00354879
12.8865	12.7427	-0.000608507	0.00227138
12.887	12.7432	0.00102767	0.00269191
12.8874	12.7437	-9.23456e-05	0.00355608
12.8879	12.7441	-0.000590102	0.00424638
12.8884	12.7446	-0.000836314	0.0035578
12.8889	12.7451	-0.000675531	0.00222827
12.8893	12.7456	0.0011059	0.00270683
12.8898	12.7461	-0.000167235	0.00346144
12.8903	12.7465	-0.000624113	0.00414051
12.8907	12.747	-0.000811773	0.00346627
12.8912	12.7475	-0.000603175	0.00218591
12.8917	12.748	0.00107476	0.00263414
12.8922	12.7484	6.81692e-07	0.0035796
12.8926	12.7489	-0.00051161	0.00407126
12.8931	12.7493	-0.000875658	0.00340957
12.8936	12.7498	-0.000647655	0.00222
12.8941	12.7503	0.000914706	0.00267789
12.8945	12.7507	-9.38794e-05	0.00342826
12.895	12.7512	-0.000682933	0.00424949
12.8955	12.7517	-0.000694668	0.00350004
12.8959	12.7522	-0.00067373	0.00222656
12.8964	12.7526	0.00102514	0.0027224
12.8969	12.7531	-9.23456e-05	0.00357042
12.8974	12.7536	-0.00080257	0.00406454
12.8978	12.754	-0.000683664	0.00344931
12.8983	12.7545	-0.00047273	0.00214903
12.8988	12.755	0.000969121	0.00279418
