# 1304     AichiSR QXAFS
# Start     : 8.9544
# End       : 9.0544
# Dir       : Forward
# Points    : 300
# ScanTime  : 1.01549
# Date      : 13.04.23 23:41
# Ring Cur. : 0.9[mA]
12.7557	12.7562	-3.65223e-06	0.0022032
12.7562	12.7558	0.000114718	0.00291357
12.7566	12.7553	6.95067e-05	0.00415173
12.7571	12.7548	-0.00143557	0.00358411
12.7576	12.7543	-0.000401978	0.00281785
12.7581	12.7539	0.000287575	0.00229023
12.7585	12.7534	0.000219017	0.0030101
12.759	12.7529	0.000191944	0.0042998
12.7595	12.7525	-0.00150612	0.00370555
12.7599	12.752	-0.000370232	0.00280057
12.7604	12.7516	0.00021702	0.00226048
12.7609	12.7511	7.61942e-06	0.00300371
12.7614	12.7506	0.000127524	0.00417197
12.7618	12.7501	-0.00142456	0.00367081
12.7623	12.7497	-0.000468931	0.00288898
12.7628	12.7492	0.000439422	0.00229989
12.7632	12.7487	0.000118321	0.00302148
12.7637	12.7483	0.000179941	0.00432315
12.7642	12.7478	-0.00147391	0.00356183
12.7647	12.7473	-0.000338022	0.00262775
12.7651	12.7469	0.000342257	0.00233366
12.7656	12.7464	0.000157933	0.00307286
12.7661	12.7459	-9.38794e-05	0.00430398
12.7666	12.7454	-0.00140949	0.00357026
12.767	12.7449	-0.000467397	0.00263103
12.7675	12.7445	0.000415148	0.00237446
12.768	12.744	9.37802e-05	0.0030632
12.7684	12.7435	-1.6654e-05	0.00436921
12.7689	12.7431	-0.00139696	0.00354707
12.7694	12.7426	-0.00044999	0.00270109
12.7699	12.7421	0.000488771	0.00241945
12.7703	12.7417	-6.32032e-05	0.00314899
12.7708	12.7412	-1.94541e-05	0.00420311
12.7713	12.7407	-0.00127659	0.00362303
12.7717	12.7402	-0.000403976	0.00261497
12.7722	12.7398	0.000608408	0.00228974
12.7727	12.7393	-1.56552e-05	0.00323724
12.7732	12.7388	-0.000264132	0.0042467
12.7736	12.7384	-0.00131313	0.00361476
12.7741	12.7379	-0.000522614	0.00259924
12.7746	12.7374	0.000661824	0.00229833
12.7751	12.7369	-5.86018e-05	0.00319676
12.7755	12.7365	-0.000207916	0.00431708
12.776	12.736	-0.00117429	0.00363565
12.7765	12.7355	-0.000482735	0.00246476
12.7769	12.735	0.000614276	0.00231342
12.7774	12.7345	-0.000159566	0.00324519
12.7779	12.7341	-0.000259263	0.00412821
12.7784	12.7336	-0.00117969	0.00354379
12.7788	12.7331	-0.000485803	0.00245059
12.7793	12.7326	0.000692768	0.00240962
12.7798	12.7322	-5.77993e-05	0.00312687
12.7802	12.7317	-0.000186175	0.00423613
12.7807	12.7312	-0.00117122	0.00358067
12.7812	12.7308	-0.000583235	0.00240839
12.7817	12.7303	0.000742385	0.00249541
12.7821	12.7298	-9.26131e-05	0.00325126
12.7826	12.7293	-0.000431585	0.00430661
12.7831	12.7289	-0.00112747	0.00359812
12.7836	12.7284	-0.000400908	0.00240962
12.784	12.728	0.000797334	0.00249574
12.7845	12.7275	-0.000123557	0.0033014
12.785	12.727	-0.000418048	0.00420638
12.7854	12.7265	-0.00119296	0.00350471
12.7859	12.726	-0.00055436	0.00245526
12.7864	12.7256	0.000809605	0.00241617
12.7869	12.7251	-9.7482e-05	0.00324503
12.7873	12.7246	-0.000429516	0.00424219
12.7878	12.7241	-0.00094088	0.00352183
12.7883	12.7237	-0.00056483	0.00237553
12.7887	12.7232	0.000888631	0.00255302
12.7892	12.7227	-0.000159833	0.0033087
12.7897	12.7223	-0.000485803	0.00432127
12.7902	12.7218	-0.000995562	0.00349225
12.7906	12.7214	-0.000578099	0.00229211
12.7911	12.7209	0.000851749	0.00258915
12.7916	12.7204	-0.000182573	0.00337548
12.7921	12.7199	-0.000589103	0.00416574
12.7925	12.7195	-0.000919942	0.0035265
12.793	12.719	-0.000612645	0.00227122
12.7935	12.7185	0.000885029	0.00259817
12.7939	12.7181	-0.00013276	0.00347062
12.7944	12.7176	-0.000531015	0.00420762
12.7949	12.7171	-0.000943413	0.00353413
12.7954	12.7167	-0.000650919	0.00225597
12.7958	12.7162	0.000915972	0.00257841
12.7963	12.7157	-0.000129692	0.00343234
12.7968	12.7152	-0.0006888	0.00426989
12.7972	12.7147	-0.000814305	0.00348431
12.7977	12.7143	-0.000657857	0.00224647
12.7982	12.7138	0.000987794	0.00262775
12.7987	12.7133	-0.00014116	0.0035002
12.7991	12.7128	-0.00067933	0.00421868
12.7996	12.7124	-0.000785698	0.00335605
12.8001	12.7119	-0.000705672	0.00207726
12.8006	12.7115	0.00102821	0.00263553
12.801	12.711	-0.000221185	0.00360107
12.8015	12.7105	-0.000765491	0.00419983
12.802	12.71	-0.000837847	0.00345972
12.8024	12.7096	-0.000797701	0.00214232
12.8029	12.7091	0.000906502	0.00274951
12.8034	12.7086	-0.000185908	0.00363361
12.8039	12.7082	-0.000826843	0.00422834
12.8043	12.7077	-0.000634315	0.00336598
12.8048	12.7072	-0.000659391	0.00223606
12.8053	12.7067	0.000904968	0.00271682
12.8057	12.7062	-0.000140161	0.00354879
12.8062	12.7058	-0.00088873	0.0041142
12.8067	12.7053	-0.000545354	0.00345489
12.8072	12.7048	-0.000606974	0.0021333
12.8076	12.7043	0.000958919	0.00282171
12.8081	12.7038	-0.000123289	0.00372267
12.8086	12.7034	-0.000918337	0.00401472
12.8091	12.7029	-0.00066706	0.00329313
12.8095	12.7024	-0.000696202	0.00219681
12.81	12.702	0.00101793	0.00277098
12.8105	12.7015	-0.000148829	0.00364467
12.8109	12.701	-0.00101424	0.00420155
12.8114	12.7005	-0.000584502	0.00332959
12.8119	12.7001	-0.00054209	0.00214543
12.8124	12.6996	0.000889898	0.00276025
12.8128	12.6991	-0.000190509	0.00369309
12.8133	12.6987	-0.00102624	0.00410346
12.8138	12.6982	-0.000654522	0.00339154
12.8142	12.6978	-0.000584502	0.00209003
12.8147	12.6973	0.000932309	0.00270962
12.8152	12.6968	-7.60087e-05	0.0036685
12.8157	12.6963	-0.000999967	0.00405864
12.8161	12.6959	-0.000562493	0.00333066
12.8166	12.6954	-0.000622579	0.00200859
12.8171	12.6949	0.000774594	0.00267585
12.8176	12.6944	2.44913e-05	0.00373062
12.818	12.6939	-0.00111493	0.00407823
12.8185	12.6935	-0.000622579	0.00337393
12.819	12.693	-0.000587569	0.00202309
12.8194	12.6926	0.000720644	0.00276164
12.8199	12.6921	-0.000105151	0.00357584
12.8204	12.6916	-0.00107405	0.0040071
12.8209	12.6912	-0.000606974	0.00324519
12.8213	12.6907	-0.000617247	0.00210528
12.8218	12.6902	0.000556259	0.00281253
12.8223	12.6897	2.83614e-05	0.00372267
12.8227	12.6893	-0.0012221	0.0040289
12.8232	12.6888	-0.000590637	0.00313793
12.8237	12.6883	-0.000362831	0.00207366
12.8242	12.6879	0.000710175	0.00283825
12.8246	12.6874	-6.04031e-05	0.00390451
12.8251	12.6869	-0.00129319	0.00401472
12.8256	12.6864	-0.000532085	0.00314727
12.8261	12.686	-0.000359228	0.0020816
12.8265	12.6855	0.000661824	0.00275091
12.827	12.685	-4.453e-05	0.00384534
12.8275	12.6845	-0.00128265	0.00386977
12.8279	12.684	-0.000520545	0.00311393
12.8284	12.6836	-0.000429319	0.00215371
12.8289	12.6831	0.000518716	0.00272846
12.8294	12.6826	2.269e-05	0.00386386
12.8298	12.6822	-0.00135888	0.00385747
12.8303	12.6817	-0.000538487	0.00312547
12.8308	12.6812	-0.00033269	0.00206652
12.8312	12.6807	0.000502576	0.00276304
12.8317	12.6803	-2.25217e-05	0.00397924
12.8322	12.6798	-0.00145604	0.00387771
12.8327	12.6793	-0.00049934	0.00295888
12.8331	12.6789	-0.00033829	0.00211462
12.8336	12.6784	0.000438423	0.00278328
12.8341	12.6779	8.71099e-05	0.00395121
12.8346	12.6775	-0.00147545	0.00385141
12.835	12.677	-0.000384839	0.00299002
12.8355	12.6765	-0.000226054	0.0021129
12.836	12.676	0.000391339	0.00285785
12.8364	12.6755	3.31592e-05	0.00396818
12.8369	12.675	-0.00145858	0.00375939
12.8374	12.6746	-0.000524416	0.00299748
12.8379	12.6741	-0.000109752	0.00215059
12.8383	12.6736	0.000364997	0.00287046
12.8388	12.6731	6.87042e-05	0.00413288
12.8393	12.6727	-0.00145191	0.00380798
12.8397	12.6722	-0.000441322	0.00301182
12.8402	12.6718	-0.000109485	0.00212863
12.8407	12.6713	0.000345325	0.00288276
12.8412	12.6708	0.000274038	0.00408044
12.8416	12.6703	-0.00149005	0.00367908
12.8421	12.6699	-0.000397573	0.00289242
12.8426	12.6694	3.553e-06	0.00213674
12.8431	12.669	0.000345592	0.00289865
12.8435	12.6685	7.5642e-05	0.0040661
12.844	12.668	-0.00144631	0.00378012
12.8445	12.6675	-0.000465863	0.00289226
12.8449	12.6671	9.88454e-05	0.0020335
12.8454	12.6666	0.000359931	0.00283433
12.8459	12.6661	0.00014593	0.00415157
12.8464	12.6656	-0.00150973	0.00380675
12.8468	12.6652	-0.000406312	0.00285833
12.8473	12.6647	0.000210617	0.00217845
12.8478	12.6642	0.000246893	0.0029992
12.8482	12.6637	0.000137458	0.00415984
12.8487	12.6633	-0.00151866	0.00361058
12.8492	12.6628	-0.00037717	0.00289505
12.8497	12.6623	8.71099e-05	0.00223869
12.8501	12.6619	0.0002615	0.00298207
12.8506	12.6614	0.000162534	0.00420418
12.8511	12.6609	-0.00151433	0.00363033
12.8516	12.6605	-0.000395041	0.00287776
12.852	12.66	0.000221354	0.00225163
12.8525	12.6595	5.51675e-05	0.00290799
12.853	12.6591	0.000224154	0.00411281
12.8534	12.6586	-0.00156468	0.00365385
12.8539	12.6581	-0.000452059	0.00278827
12.8544	12.6577	0.000236157	0.00226564
12.8549	12.6572	7.97084e-05	0.00298691
12.8553	12.6567	0.00018654	0.00418598
12.8558	12.6562	-0.00152426	0.00359017
12.8563	12.6557	-0.000438522	0.00278295
12.8567	12.6553	0.000320516	0.00213905
12.8572	12.6548	7.27707e-05	0.00303361
12.8577	12.6543	0.000141328	0.00417492
12.8582	12.6538	-0.00148925	0.00360607
12.8586	12.6534	-0.00045386	0.00279573
12.8591	12.6529	0.000328988	0.00232743
12.8596	12.6524	0.000112721	0.00308065
12.8601	12.652	4.2897e-05	0.00421384
12.8605	12.6515	-0.00139262	0.00364531
12.861	12.651	-0.000430318	0.0026788
12.8615	12.6505	0.000399008	0.0023539
12.8619	12.65	3.4693e-05	0.00310088
12.8624	12.6496	6.89717e-05	0.0042889
12.8629	12.6491	-0.0014299	0.00370088
12.8634	12.6487	-0.000416782	0.00269003
12.8638	12.6482	0.000406944	0.00237897
12.8643	12.6477	7.38407e-05	0.00315129
12.8648	12.6472	-5.91368e-05	0.00426087
12.8652	12.6467	-0.00142176	0.00353756
12.8657	12.6463	-0.000386373	0.00259538
12.8662	12.6458	0.000533252	0.00242036
12.8667	12.6453	-9.02768e-05	0.00301214
12.8671	12.6448	-0.000160101	0.00421121
12.8676	12.6443	-0.00131873	0.00359935
12.8681	12.6439	-0.000438522	0.00262603
12.8686	12.6434	0.000529649	0.00237119
12.869	12.6429	-2.94595e-05	0.00310851
12.8695	12.6425	-9.87483e-05	0.00425277
12.87	12.642	-0.00132947	0.00356731
12.8704	12.6416	-0.000469662	0.0025826
12.8709	12.6411	0.000627349	0.00247845
12.8714	12.6406	2.17883e-07	0.00316906
12.8719	12.6401	-0.000150363	0.00422507
12.8723	12.6397	-0.00119656	0.00367408
12.8728	12.6392	-0.000520278	0.00257326
12.8733	12.6387	0.000669493	0.00245665
12.8737	12.6383	-5.64985e-06	0.00322806
12.8742	12.6378	-0.00020945	0.00421663
12.8747	12.6373	-0.001117	0.00353584
12.8752	12.6369	-0.000479133	0.00254958
12.8756	12.6364	0.000699438	0.00249713
12.8761	12.6359	-0.000180575	0.00333312
12.8766	12.6354	-0.000333688	0.00421057
12.8771	12.635	-0.00114181	0.00351003
12.8775	12.6345	-0.000471464	0.00242707
12.878	12.634	0.000814473	0.00256113
12.8785	12.6335	-4.01961e-05	0.00323585
12.8789	12.6331	-0.000334223	0.00427472
12.8794	12.6326	-0.00109606	0.0034158
12.8799	12.6321	-0.000466398	0.00237119
12.8804	12.6317	0.0007958	0.00244608
12.8808	12.6312	-0.00013276	0.00332148
12.8813	12.6307	-0.000475601	0.00432562
12.8818	12.6302	-0.00106999	0.00346267
12.8822	12.6298	-0.000578366	0.00230891
12.8827	12.6293	0.000878626	0.00250926
12.8832	12.6288	-0.000144495	0.00342096
12.8837	12.6284	-0.000458462	0.00417197
12.8841	12.6279	-0.00100764	0.00357444
12.8846	12.6274	-0.000542019	0.00232029
12.8851	12.627	0.000795069	0.00255007
12.8856	12.6265	-7.85413e-05	0.00334746
12.886	12.626	-0.000428517	0.00422007
12.8865	12.6255	-0.000952348	0.00350004
12.887	12.625	-0.000657322	0.0022468
12.8874	12.6246	0.000910105	0.0025295
12.8879	12.6241	-0.000254929	0.00336974
12.8884	12.6236	-0.000504209	0.00416746
12.8889	12.6231	-0.000985895	0.0035424
12.8893	12.6227	-0.000626378	0.00220304
12.8898	12.6222	0.00094458	0.00259038
12.8903	12.6217	-0.000147563	0.00350503
12.8907	12.6213	-0.000670395	0.00406782
12.8912	12.6208	-0.000903801	0.00338687
12.8917	12.6203	-0.000633851	0.00219214
12.8922	12.6198	0.000884494	0.00267322
12.8926	12.6194	-0.000118688	0.00351839
12.8931	12.6189	-0.000591368	0.00421089
12.8936	12.6184	-0.000847781	0.00345972
12.8941	12.618	-0.000694936	0.00225458
12.8945	12.6175	0.00105348	0.00269437
12.895	12.617	-0.000147028	0.00343996
12.8955	12.6165	-0.000486338	0.0042358
12.8959	12.6161	-0.000805102	0.00345365
12.8964	12.6156	-0.000605975	0.00213314
12.8969	12.6151	0.000988864	0.00262759
12.8974	12.6146	-1.56552e-05	0.00363844
12.8978	12.6141	-0.000777494	0.00416762
12.8983	12.6137	-0.000760354	0.00335041
12.8988	12.6132	-0.000721545	0.00215182
