# 1304     AichiSR QXAFS
# Start     : 8.9544
# End       : 9.0544
# Dir       : Forward
# Points    : 300
# ScanTime  : 1.01549
# Date      : 13.04.23 23:09
# Ring Cur. : 0.9[mA]
12.7557	12.7561	-0.00125918	0.00354969
12.7562	12.7557	-0.000411449	0.00261996
12.7566	12.7552	0.000660023	0.0024587
12.7571	12.7547	5.55062e-06	0.00316391
12.7576	12.7542	-0.00014783	0.00430742
12.7581	12.7538	-0.00118015	0.00353241
12.7585	12.7533	-0.000378704	0.00252704
12.759	12.7528	0.00064242	0.00230939
12.7595	12.7524	-7.88088e-05	0.00316439
12.7599	12.7519	-0.000112285	0.00426055
12.7604	12.7515	-0.00109353	0.00355158
12.7609	12.751	-0.000416514	0.00246616
12.7614	12.7505	0.000659826	0.00253884
12.7618	12.75	-1.59227e-05	0.00326215
12.7623	12.7496	-0.000115353	0.00428546
12.7628	12.7491	-0.00104618	0.00358395
12.7632	12.7486	-0.000433386	0.00246755
12.7637	12.7482	0.000851749	0.0025068
12.7642	12.7477	-5.86018e-05	0.0032315
12.7647	12.7472	-0.000244995	0.0042045
12.7651	12.7468	-0.000954149	0.0036132
12.7656	12.7463	-0.000514945	0.0024392
12.7661	12.7458	0.000881426	0.00251705
12.7666	12.7453	-0.000146029	0.00322946
12.767	12.7448	-0.000324753	0.00430914
12.7675	12.7444	-0.00107866	0.00360156
12.768	12.7439	-0.000505475	0.00244903
12.7684	12.7434	0.000802203	0.00238364
12.7689	12.743	-0.000196181	0.00333689
12.7694	12.7425	-0.000269268	0.00414239
12.7699	12.742	-0.00093808	0.00350938
12.7703	12.7416	-0.000538487	0.00234472
12.7708	12.7411	0.000911835	0.00249541
12.7713	12.7406	-7.70075e-05	0.00331009
12.7717	12.7401	-0.000493739	0.00422941
12.7722	12.7397	-0.000806101	0.00355297
12.7727	12.7392	-0.000410646	0.00234488
12.7732	12.7387	0.000935377	0.00261857
12.7736	12.7383	-3.99286e-05	0.00339589
12.7741	12.7378	-0.0004738	0.00414271
12.7746	12.7373	-0.000948281	0.00341784
12.7751	12.7368	-0.000572962	0.00229441
12.7755	12.7364	0.000933308	0.00264488
12.776	12.7359	-1.87228e-05	0.00343186
12.7765	12.7354	-0.000527483	0.00414394
12.7769	12.7349	-0.000838115	0.00347062
12.7774	12.7344	-0.00050214	0.0023525
12.7779	12.734	0.00105195	0.00261996
12.7784	12.7335	-5.14678e-05	0.00346128
12.7788	12.733	-0.000570697	0.00426989
12.7793	12.7325	-0.000792564	0.00346128
12.7798	12.7321	-0.000551222	0.00223762
12.7802	12.7316	0.000995195	0.00267708
12.7807	12.7311	-0.000144495	0.00347217
12.7812	12.7306	-0.00054382	0.00421712
12.7817	12.7302	-0.000657589	0.00353069
12.7821	12.7297	-0.00057883	0.00221829
12.7826	12.7292	0.00110797	0.00263553
12.7831	12.7288	-2.8657e-05	0.00352478
12.7836	12.7283	-0.000637115	0.00419892
12.784	12.7278	-0.000798236	0.00347529
12.7845	12.7274	-0.00057323	0.00218329
12.785	12.7269	0.001008	0.00275697
12.7854	12.7264	-2.61243e-05	0.00356526
12.7859	12.7259	-0.000691868	0.00423392
12.7864	12.7255	-0.00064712	0.00346407
12.7869	12.725	-0.000640717	0.00215526
12.7873	12.7245	0.0010006	0.00275616
12.7878	12.724	-0.000110751	0.00354084
12.7883	12.7236	-0.000707741	0.00414394
12.7887	12.7231	-0.000553825	0.00341784
12.7892	12.7226	-0.000601373	0.00220803
12.7897	12.7222	0.00107955	0.00267553
12.7902	12.7217	-6.4202e-05	0.00359501
12.7906	12.7212	-0.000716142	0.00415221
12.7911	12.7208	-0.000596772	0.00334574
12.7916	12.7203	-0.000573497	0.00214855
12.7921	12.7198	0.000967123	0.00270388
12.7925	12.7194	-0.000133295	0.00352543
12.793	12.7189	-0.000818639	0.00418459
12.7935	12.7184	-0.000605707	0.00348635
12.7939	12.718	-0.000628447	0.00205079
12.7944	12.7175	0.000995463	0.00274714
12.7949	12.717	2.47588e-05	0.00359935
12.7954	12.7165	-0.00092094	0.00419344
12.7958	12.7161	-0.000549955	0.00340211
12.7963	12.7156	-0.000434188	0.00222
12.7968	12.7151	0.000921305	0.00284662
12.7972	12.7146	-0.000125358	0.00356993
12.7977	12.7141	-0.000993761	0.00409101
12.7982	12.7137	-0.000604174	0.00326527
12.7987	12.7132	-0.000519012	0.00215182
12.7991	12.7127	0.00101007	0.0026838
12.7996	12.7123	2.72914e-05	0.00361557
12.8001	12.7118	-0.000855451	0.00401676
12.8006	12.7113	-0.000499607	0.00329517
12.801	12.7109	-0.000510344	0.00219386
12.8015	12.7104	0.000893964	0.00279246
12.802	12.7099	-2.55893e-05	0.00371677
12.8024	12.7094	-0.00115561	0.00405102
12.8029	12.709	-0.000422382	0.00318603
12.8034	12.7085	-0.000535687	0.00210667
12.8039	12.7081	0.00075132	0.00282392
12.8043	12.7076	-4.63313e-05	0.003723
12.8048	12.7071	-0.00110446	0.0040756
12.8053	12.7066	-0.000457392	0.00325093
12.8057	12.7061	-0.000438255	0.00216379
12.8062	12.7057	0.000745452	0.0027618
12.8067	12.7052	1.90874e-05	0.00388722
12.8072	12.7047	-0.00110726	0.00408511
12.8076	12.7042	-0.000441055	0.00317341
12.8081	12.7037	-0.000279203	0.00211086
12.8086	12.7033	0.000716506	0.00287374
12.8091	12.7028	-5.40004e-05	0.00373308
12.8095	12.7023	-0.00118169	0.00396694
12.81	12.7019	-0.000334955	0.00323896
12.8105	12.7014	-0.000262598	0.002083
12.8109	12.7009	0.000602006	0.00283106
12.8114	12.7004	1.5556e-05	0.00383788
12.8119	12.7	-0.00128526	0.00397629
12.8124	12.6995	-0.000425984	0.00319333
12.8128	12.699	-0.000317619	0.00208316
12.8133	12.6986	0.000656759	0.0027873
12.8138	12.6981	3.21603e-05	0.00389688
12.8142	12.6976	-0.00123384	0.00395728
12.8147	12.6972	-0.000402442	0.00305058
12.8152	12.6967	-0.000270267	0.00208332
12.8157	12.6962	0.00061021	0.00274468
12.8161	12.6957	6.43703e-05	0.00392802
12.8166	12.6953	-0.00123537	0.00392754
12.8171	12.6948	-0.000353895	0.0031186
12.8176	12.6943	-5.30016e-05	0.00220025
12.818	12.6938	0.000497172	0.00270838
12.8185	12.6934	0.000176338	0.00386542
12.819	12.6929	-0.00131333	0.00392319
12.8194	12.6924	-0.000315818	0.00306336
12.8199	12.692	-6.22044e-05	0.00223573
12.8204	12.6915	0.000526581	0.00281286
12.8209	12.691	8.83762e-05	0.00403512
12.8213	12.6906	-0.00128292	0.0038964
12.8218	12.6901	-0.000369501	0.00300682
12.8223	12.6896	-0.000111821	0.00213658
12.8227	12.6892	0.000485169	0.00282359
12.8232	12.6887	0.000103786	0.00405848
12.8237	12.6882	-0.00138235	0.00380175
12.8242	12.6878	-0.000290742	0.00295077
12.8246	12.6873	4.59646e-05	0.00214264
12.8251	12.6868	0.000474164	0.00284351
12.8256	12.6863	5.18323e-05	0.00404586
12.8261	12.6858	-0.00140923	0.0038796
12.8265	12.6854	-0.000346494	0.0029774
12.827	12.6849	0.00011372	0.00226687
12.8275	12.6844	0.000359664	0.00289693
12.8279	12.6839	8.66461e-05	0.00407077
12.8284	12.6835	-0.00145551	0.00375349
12.8289	12.683	-0.000288405	0.00302787
12.8294	12.6825	2.16912e-05	0.00215494
12.8298	12.6821	0.000411011	0.00289087
12.8303	12.6816	0.000111383	0.00419532
12.8308	12.6811	-0.00153346	0.00371891
12.8312	12.6806	-0.00033162	0.00295298
12.8317	12.6802	8.02434e-05	0.0022309
12.8322	12.6797	0.000409013	0.00292775
12.8327	12.6792	0.000124456	0.0042059
12.8331	12.6788	-0.00138108	0.00380003
12.8336	12.6783	-0.000329354	0.00292045
12.8341	12.6778	0.000202681	0.00218124
12.8346	12.6773	0.000303377	0.0028871
12.835	12.6769	0.000165334	0.00423613
12.8355	12.6764	-0.00143304	0.00385378
12.836	12.6759	-0.000304546	0.00294798
12.8364	12.6754	0.000253831	0.00237135
12.8369	12.6749	0.000292373	0.00291578
12.8374	12.6745	0.000261233	0.0042249
12.8379	12.674	-0.00136421	0.00370506
12.8383	12.6735	-0.00027947	0.00286858
12.8388	12.673	0.000316985	0.00237397
12.8393	12.6726	0.000261964	0.00291685
12.8397	12.6721	0.000168205	0.00425727
12.8402	12.6717	-0.00149565	0.00376267
12.8407	12.6712	-0.000380969	0.00290283
12.8412	12.6707	0.000418216	0.00231186
12.8416	12.6702	0.000122923	0.00300124
12.8421	12.6698	0.000197544	0.00418598
12.8426	12.6693	-0.00136375	0.00360558
12.8431	12.6688	-0.000295076	0.00286064
12.8435	12.6684	0.000448357	0.0023022
12.844	12.6679	7.33057e-05	0.00299952
12.8445	12.6674	0.000120586	0.00426817
12.8449	12.667	-0.00140436	0.00367425
12.8454	12.6665	-0.000419314	0.0026897
12.8459	12.666	0.000356329	0.00232153
12.8464	12.6655	5.58988e-05	0.00302599
12.8468	12.6651	0.000127256	0.00412494
12.8473	12.6646	-0.0013402	0.00367146
12.8478	12.6641	-0.000383038	0.00276631
12.8482	12.6636	0.000414346	0.0023684
12.8487	12.6632	0.000157665	0.00306679
12.8492	12.6627	8.09747e-05	0.0042948
12.8497	12.6622	-0.00137422	0.00345505
12.8501	12.6618	-0.000416514	0.00268986
12.8506	12.6613	0.000571597	0.00235062
12.8511	12.6608	-3.65223e-06	0.00308606
12.8516	12.6604	1.93549e-05	0.00422211
12.852	12.6599	-0.00130899	0.00360295
12.8525	12.6594	-0.000459461	0.00255737
12.853	12.659	0.000517914	0.00230112
12.8534	12.6585	-9.41469e-05	0.00319381
12.8539	12.658	-6.18485e-06	0.00423908
12.8544	12.6575	-0.0012229	0.00342735
12.8549	12.6571	-0.000390439	0.00266216
12.8553	12.6566	0.000653424	0.00231718
12.8558	12.6561	-7.25485e-06	0.00308499
12.8563	12.6556	1.6091e-05	0.00422474
12.8567	12.6552	-0.00127118	0.00360623
12.8572	12.6547	-0.000405777	0.00266323
12.8577	12.6542	0.000686097	0.00240077
12.8582	12.6537	-2.45905e-05	0.0031485
12.8586	12.6533	-0.000141427	0.00428128
12.8591	12.6528	-0.00118042	0.00358427
12.8596	12.6523	-0.000427518	0.0024632
12.8601	12.6519	0.000682834	0.00238348
12.8605	12.6514	4.01681e-06	0.00323724
12.861	12.6509	1.70898e-05	0.00430677
12.8615	12.6504	-0.0011114	0.0035301
12.8619	12.6499	-0.000490404	0.00249123
12.8624	12.6495	0.000789398	0.00250647
12.8629	12.649	-0.000140161	0.00332615
12.8634	12.6485	-6.14019e-05	0.0041287
12.8638	12.6481	-0.0009997	0.00363516
12.8643	12.6476	-0.000477403	0.00250041
12.8648	12.6471	0.000798868	0.0024596
12.8652	12.6466	-9.6947e-05	0.00320036
12.8657	12.6462	-0.000250595	0.00424933
12.8662	12.6457	-0.000963887	0.00354846
12.8667	12.6452	-0.000468931	0.00237102
12.8671	12.6447	0.000828813	0.00249042
12.8676	12.6442	-0.000120685	0.00327412
12.8681	12.6438	-0.000294077	0.00418426
12.8686	12.6433	-0.000959821	0.00356977
12.869	12.6428	-0.000490672	0.0023838
12.8695	12.6424	0.000961452	0.00250352
12.87	12.6419	-5.98681e-05	0.00331493
12.8704	12.6415	-0.000356963	0.00414862
12.8709	12.641	-0.000978423	0.00349381
12.8714	12.6405	-0.000466398	0.00244683
12.8719	12.64	0.000904701	0.00247378
12.8723	12.6396	-2.4858e-05	0.0032978
12.8728	12.6391	-0.000401443	0.00413976
12.8733	12.6386	-0.000990229	0.00353756
12.8737	12.6382	-0.000497538	0.00237586
12.8742	12.6377	0.000975523	0.00250008
12.8747	12.6372	-0.000116155	0.00335229
12.8752	12.6367	-0.00039711	0.00416091
12.8756	12.6363	-0.000891531	0.00356526
12.8761	12.6358	-0.000472534	0.00229973
12.8766	12.6353	0.000930508	0.00267741
12.8771	12.6348	-9.82133e-05	0.00331869
12.8775	12.6344	-0.000483538	0.00423113
12.878	12.6339	-0.000748886	0.00340523
12.8785	12.6334	-0.000569163	0.00221131
12.8789	12.633	0.00109416	0.00265405
12.8794	12.6325	-9.26131e-05	0.00340571
12.8799	12.632	-0.000529748	0.00423097
12.8804	12.6316	-0.000876193	0.00363049
12.8808	12.6311	-0.000644588	0.00216895
12.8813	12.6306	0.00112457	0.00272535
12.8818	12.6301	-9.56807e-05	0.00350922
12.8822	12.6297	-0.000614643	0.0042467
12.8827	12.6292	-0.000832443	0.00348619
12.8832	12.6287	-0.000535884	0.00226811
12.8837	12.6283	0.00100467	0.00277705
12.8841	12.6278	-0.000169571	0.00351872
12.8846	12.6273	-0.000590102	0.0042526
12.8851	12.6268	-0.000587837	0.00345177
12.8856	12.6264	-0.000709007	0.00223729
12.886	12.6259	0.00104248	0.00267306
12.8865	12.6254	-0.000160564	0.00352495
12.887	12.6249	-0.000642519	0.00399711
12.8874	12.6244	-0.000744018	0.00344152
12.8879	12.624	-0.00059597	0.00217969
12.8884	12.6235	0.00105888	0.00271912
12.8889	12.623	-0.000115888	0.00351405
12.8893	12.6226	-0.000593437	0.00415533
12.8898	12.6221	-0.000628714	0.00337425
12.8903	12.6216	-0.00064992	0.00222188
12.8907	12.6211	0.00095405	0.00268224
12.8912	12.6207	7.35192e-06	0.00359001
12.8917	12.6202	-0.000891531	0.00420933
12.8922	12.6197	-0.000691333	0.00326199
12.8926	12.6192	-0.000722544	0.00215526
12.8931	12.6188	0.000842885	0.00283466
12.8936	12.6183	-6.98735e-05	0.00354191
12.8941	12.6178	-0.000785163	0.00404725
12.8945	12.6174	-0.000582433	0.00337286
12.895	12.6169	-0.000715143	0.00213363
12.8955	12.6164	0.000948717	0.00280598
12.8959	12.6159	-0.000128693	0.00356215
12.8964	12.6155	-0.000875461	0.00408134
12.8969	12.615	-0.00057323	0.00336942
12.8974	12.6145	-0.000652524	0.00221689
12.8978	12.614	0.000896568	0.00270371
12.8983	12.6136	-2.61243e-05	0.00360091
12.8988	12.6131	-0.000889729	0.00411732
