# 1304     AichiSR QXAFS
# Start     : 8.9544
# End       : 9.0544
# Dir       : Forward
# Points    : 300
# ScanTime  : 1.01549
# Date      : 13.04.23 22:47
# Ring Cur. : 1[mA]
12.7557	12.756	0.000140062	0.00231063
12.7562	12.7555	0.000306712	0.00301665
12.7566	12.755	0.000233624	0.00415124
12.7571	12.7545	-0.00136475	0.00374898
12.7576	12.754	-0.000281004	0.00275697
12.7581	12.7536	0.000362464	0.00226269
12.7585	12.7531	0.000117786	0.00299641
12.759	12.7527	0.000101449	0.00429324
12.7595	12.7522	-0.00134174	0.00373046
12.7599	12.7517	-0.000287139	0.00299142
12.7604	12.7513	0.00024536	0.00240904
12.7609	12.7508	0.000269901	0.00305648
12.7614	12.7503	0.000174537	0.00427816
12.7618	12.7498	-0.00135501	0.00372546
12.7623	12.7494	-0.000321418	0.00290767
12.7628	12.7489	0.000394674	0.00233087
12.7632	12.7485	0.000125723	0.00308451
12.7637	12.748	0.000162802	0.00445344
12.7642	12.7475	-0.00147318	0.00372981
12.7647	12.747	-0.000424718	0.00274559
12.7651	12.7466	0.000494371	0.00238487
12.7656	12.7461	0.000117786	0.00310974
12.7661	12.7456	2.24225e-05	0.00415951
12.7666	12.7451	-0.00135888	0.00367876
12.767	12.7447	-0.000214783	0.00285924
12.7675	12.7442	0.000462964	0.00235873
12.768	12.7437	5.77001e-05	0.00309777
12.7684	12.7432	6.23015e-05	0.00438338
12.7689	12.7428	-0.00135528	0.0036758
12.7694	12.7423	-0.000379703	0.00272723
12.7699	12.7418	0.000607142	0.00238192
12.7703	12.7414	-1.51202e-05	0.00309106
12.7708	12.7409	9.22463e-05	0.00427424
12.7713	12.7404	-0.00133254	0.00373185
12.7717	12.7399	-0.00038277	0.00272116
12.7722	12.7395	0.000547056	0.00236979
12.7727	12.739	0.000113185	0.0031857
12.7732	12.7386	-3.81273e-05	0.00429636
12.7736	12.7381	-0.00133434	0.00368515
12.7741	12.7376	-0.000331887	0.00261218
12.7746	12.7371	0.000706572	0.00237569
12.7751	12.7366	1.65548e-05	0.00332394
12.7755	12.7362	-3.81273e-05	0.00427891
12.776	12.7357	-0.00122924	0.00379445
12.7765	12.7352	-0.000361297	0.0026715
12.7769	12.7347	0.000605876	0.00243174
12.7774	12.7342	9.96479e-05	0.00316579
12.7779	12.7338	-0.000189243	0.00438977
12.7784	12.7333	-0.00108433	0.00362303
12.7788	12.7328	-0.000517745	0.0025812
12.7793	12.7324	0.000759524	0.00244935
12.7798	12.7319	7.5107e-05	0.00329936
12.7802	12.7314	-0.000220918	0.00431832
12.7807	12.7309	-0.00107586	0.00359484
12.7812	12.7305	-0.00034776	0.00252
12.7817	12.73	0.000746986	0.00234595
12.7821	12.7295	4.44308e-05	0.00326838
12.7826	12.7291	-0.000365631	0.00425711
12.7831	12.7286	-0.000942146	0.00360746
12.7836	12.7281	-0.000519814	0.00248312
12.784	12.7276	0.000843348	0.00260177
12.7845	12.7272	-7.75425e-05	0.00313744
12.785	12.7267	-0.000393507	0.00420933
12.7854	12.7262	-0.00103264	0.00366974
12.7859	12.7257	-0.000548956	0.00248591
12.7864	12.7253	0.00070964	0.00255941
12.7869	12.7248	-6.4202e-05	0.00330263
12.7873	12.7243	-0.00044719	0.0043166
12.7878	12.7238	-0.000937277	0.00355764
12.7883	12.7234	-0.00064992	0.00234005
12.7887	12.7229	0.000962985	0.002603
12.7892	12.7224	3.31592e-05	0.00327429
12.7897	12.722	-0.000514945	0.00424466
12.7902	12.7215	-0.00091147	0.00352044
12.7906	12.7211	-0.000556358	0.00235095
12.7911	12.7206	0.00077686	0.00268036
12.7916	12.7201	-3.37934e-05	0.00347496
12.7921	12.7196	-0.000453325	0.0041746
12.7925	12.7192	-0.000801303	0.0034566
12.793	12.7187	-0.000606242	0.00229006
12.7935	12.7182	0.000885296	0.00258834
12.7939	12.7178	-0.000152967	0.00350175
12.7944	12.7173	-0.000474264	0.00420294
12.7949	12.7168	-0.000735617	0.00351995
12.7954	12.7164	-0.000660193	0.00224958
12.7958	12.7159	0.00101467	0.0026248
12.7963	12.7154	1.80886e-05	0.00342128
12.7968	12.7149	-0.000710541	0.00430447
12.7972	12.7144	-0.000796435	0.00356247
12.7977	12.714	-0.000650188	0.00231481
12.7982	12.7135	0.000985992	0.00268396
12.7987	12.713	-7.54737e-05	0.00357632
12.7991	12.7126	-0.000698735	0.0041192
12.7996	12.7121	-0.000784432	0.0034208
12.8001	12.7116	-0.000629249	0.00221754
12.8006	12.7111	0.000928243	0.0027618
12.801	12.7107	-2.9192e-05	0.00361353
12.8015	12.7102	-0.000835779	0.00425695
12.802	12.7097	-0.000698271	0.00343964
12.8024	12.7093	-0.00064152	0.00218575
12.8029	12.7088	0.00103301	0.00274156
12.8034	12.7083	-0.000128693	0.00364794
12.8039	12.7079	-0.00083198	0.00411592
12.8043	12.7074	-0.000616712	0.00345988
12.8048	12.7069	-0.00059597	0.00221861
12.8053	12.7064	0.000905967	0.00269625
12.8057	12.7059	-5.83343e-05	0.00369432
12.8062	12.7055	-0.000821974	0.00400882
12.8067	12.705	-0.000642251	0.00342842
12.8072	12.7045	-0.000642251	0.00218017
12.8076	12.704	0.000904701	0.00275058
12.8081	12.7035	-7.98076e-05	0.00366925
12.8086	12.7031	-0.000963887	0.00411174
12.8091	12.7026	-0.000434652	0.00335541
12.8095	12.7021	-0.000569698	0.00220476
12.81	12.7017	0.000994196	0.00263398
12.8105	12.7012	-3.83948e-05	0.00372251
12.8109	12.7007	-0.000898397	0.00410797
12.8114	12.7002	-0.000527947	0.00314351
12.8119	12.6998	-0.000573765	0.00203489
12.8124	12.6993	0.000870957	0.00279434
12.8128	12.6989	2.269e-05	0.00364016
12.8133	12.6984	-0.00107559	0.00408134
12.8138	12.6979	-0.000435187	0.00328723
12.8142	12.6974	-0.00044719	0.0021347
12.8147	12.697	0.000729115	0.00275697
12.8152	12.6965	-1.23201e-05	0.0036495
12.8157	12.696	-0.00104084	0.00398686
12.8161	12.6955	-0.000421115	0.00319333
12.8166	12.6951	-0.000408114	0.00217067
12.8171	12.6946	0.000670759	0.00281876
12.8176	12.6941	3.0894e-05	0.00388099
12.818	12.6936	-0.00119116	0.00403963
12.8185	12.6932	-0.000367165	0.00333721
12.819	12.6927	-0.000362831	0.00223917
12.8194	12.6923	0.000726511	0.00286826
12.8199	12.6918	-5.73355e-05	0.00384813
12.8204	12.6913	-0.00112367	0.00400661
12.8209	12.6908	-0.000369965	0.00330623
12.8213	12.6904	-0.000299945	0.00210839
12.8218	12.6899	0.000621481	0.00278516
12.8223	12.6894	8.71099e-05	0.00396039
12.8227	12.689	-0.00129699	0.00391836
12.8232	12.6885	-0.000528018	0.00309868
12.8237	12.688	-0.000183375	0.00220492
12.8242	12.6876	0.000599937	0.00296683
12.8246	12.6871	2.01574e-05	0.00384132
12.8251	12.6866	-0.00127885	0.00393204
12.8256	12.6861	-0.0003677	0.00308794
12.8261	12.6857	-0.000239591	0.00228867
12.8265	12.6852	0.000513312	0.00285924
12.827	12.6847	0.000118589	0.00397269
12.8275	12.6842	-0.00132233	0.00395712
12.8279	12.6837	-0.000579633	0.00306008
12.8284	12.6833	-0.000304279	0.00215387
12.8289	12.6828	0.00044636	0.00289038
12.8294	12.6823	0.000177872	0.00396694
12.8298	12.6819	-0.00135221	0.00391508
12.8303	12.6814	-0.000413714	0.0029933
12.8308	12.6809	-1.43889e-05	0.00219075
12.8312	12.6804	0.000555991	0.00274763
12.8317	12.68	0.000141328	0.00411576
12.8322	12.6795	-0.00137008	0.00378978
12.8327	12.679	-0.000473532	0.00299362
12.8331	12.6786	6.56366e-05	0.00219402
12.8336	12.6781	0.000419215	0.00283589
12.8341	12.6776	0.000132857	0.00409789
12.8346	12.6771	-0.00135528	0.00381764
12.835	12.6767	-0.000347493	0.00296822
12.8355	12.6762	-3.91973e-06	0.0022105
12.836	12.6757	0.000404412	0.00305664
12.8364	12.6752	0.000245627	0.00408994
12.8369	12.6747	-0.00145677	0.00378012
12.8374	12.6743	-0.000331352	0.00297724
12.8379	12.6738	5.20998e-05	0.00227154
12.8383	12.6733	0.000392141	0.00292479
12.8388	12.6728	0.000134925	0.00426506
12.8393	12.6724	-0.00151299	0.00383461
12.8397	12.6719	-0.000379168	0.00298895
12.8402	12.6715	0.000178407	0.00223123
12.8407	12.671	0.000253029	0.00305042
12.8412	12.6705	0.00031365	0.00423875
12.8416	12.67	-0.0014427	0.0037711
12.8421	12.6696	-0.000376368	0.00285908
12.8426	12.6691	0.000125455	0.00229973
12.8431	12.6687	0.000230557	0.00298691
12.8435	12.6682	0.00024256	0.00431365
12.844	12.6677	-0.00148412	0.00366695
12.8445	12.6672	-0.000381236	0.00287637
12.8449	12.6668	0.00022822	0.00220132
12.8454	12.6663	0.000238493	0.0030232
12.8459	12.6658	0.000229023	0.0042875
12.8464	12.6653	-0.00144477	0.00370088
12.8468	12.6649	-0.000268466	0.00287358
12.8473	12.6644	0.00028704	0.00220148
12.8478	12.6639	0.000209351	0.00303361
12.8482	12.6634	0.000237958	0.0042045
12.8487	12.663	-0.00145784	0.00376487
12.8492	12.6625	-0.000351363	0.00285489
12.8497	12.662	0.00038754	0.00233242
12.8501	12.6616	3.44255e-05	0.00308172
12.8506	12.6611	0.000179673	0.00434151
12.8511	12.6606	-0.00134174	0.00360091
12.8516	12.6602	-0.000407311	0.00264471
12.852	12.6597	0.000474967	0.00231047
12.8525	12.6592	0.00016767	0.00302567
12.853	12.6588	6.3104e-05	0.00428202
12.8534	12.6583	-0.00137522	0.00367924
12.8539	12.6578	-0.000432387	0.00274435
12.8544	12.6573	0.000522783	0.00234332
12.8549	12.6569	0.000171006	0.0031594
12.8553	12.6564	-1.7189e-05	0.00436191
12.8558	12.6559	-0.00132253	0.00368965
12.8563	12.6554	-0.000420848	0.0027028
12.8567	12.655	0.000494906	0.00240511
12.8572	12.6545	5.49e-05	0.00315629
12.8577	12.654	5.15648e-05	0.00421605
12.8582	12.6535	-0.00111474	0.0035782
12.8586	12.6531	-0.000350025	0.00270388
12.8591	12.6526	0.000602541	0.0024442
12.8596	12.6521	5.51675e-05	0.00317873
12.8601	12.6517	5.55062e-06	0.00433168
12.8605	12.6512	-0.00121263	0.00366491
12.861	12.6507	-0.000462261	0.00267864
12.8615	12.6502	0.00065082	0.00241429
12.8619	12.6497	4.18982e-05	0.00319988
12.8624	12.6493	-0.000101013	0.00429652
12.8629	12.6488	-0.00112214	0.00362008
12.8634	12.6484	-0.000468396	0.00249525
12.8638	12.6479	0.000596405	0.00253777
12.8643	12.6474	3.95619e-05	0.00328567
12.8648	12.6469	-0.00023886	0.00430071
12.8652	12.6464	-0.00108146	0.0037035
12.8657	12.646	-0.000483003	0.00254368
12.8662	12.6455	0.000884761	0.0024115
12.8667	12.645	-5.73355e-05	0.00332878
12.8671	12.6445	-0.000230656	0.00432889
12.8676	12.644	-0.00113494	0.00354502
12.8681	12.6436	-0.000579365	0.00249042
12.8686	12.6431	0.000714241	0.0025767
12.869	12.6426	-3.45959e-05	0.00336647
12.8695	12.6422	-0.000305812	0.00425448
12.87	12.6417	-0.000975159	0.00353305
12.8704	12.6413	-0.000520082	0.00252639
12.8709	12.6408	0.000867622	0.00262275
12.8714	12.6403	-6.50045e-05	0.00332738
12.8719	12.6398	-0.000203047	0.00425851
12.8723	12.6394	-0.000893599	0.00357804
12.8728	12.6389	-0.000561762	0.00240544
12.8733	12.6384	0.000878358	0.00258104
12.8737	12.638	-8.78865e-06	0.00344931
12.8742	12.6375	-0.000367432	0.00429029
12.8747	12.637	-0.000928609	0.00356215
12.8752	12.6366	-0.000489602	0.00243797
12.8756	12.6361	0.000990861	0.00261808
12.8761	12.6356	-7.52062e-05	0.00352248
12.8766	12.6351	-0.000513411	0.00420622
12.8771	12.6346	-0.000775693	0.00357182
12.8775	12.6342	-0.000622579	0.00236061
12.878	12.6337	0.000993929	0.00266323
12.8785	12.6332	1.68223e-05	0.00348119
12.8789	12.6328	-0.000515748	0.004273
12.8794	12.6323	-0.000962353	0.00353552
12.8799	12.6318	-0.000570162	0.00218763
12.8804	12.6314	0.000965785	0.00261062
12.8808	12.6309	-0.000134293	0.00354502
12.8813	12.6304	-0.00057323	0.00415608
12.8818	12.6299	-0.000863655	0.0035374
12.8822	12.6295	-0.000567362	0.00213969
12.8827	12.629	0.00102107	0.00275026
12.8832	12.6285	-9.51996e-06	0.00354707
12.8837	12.6281	-0.000779028	0.00427972
12.8841	12.6276	-0.000811773	0.00345596
12.8846	12.6271	-0.000679063	0.00218436
12.8851	12.6266	0.000918505	0.00263242
12.8856	12.6262	-4.78652e-05	0.00359484
12.886	12.6257	-0.000845784	0.00419516
12.8865	12.6252	-0.000721742	0.00338515
12.887	12.6247	-0.000646656	0.00224835
12.8874	12.6242	0.00091904	0.00261718
12.8879	12.6238	-6.26682e-05	0.00355141
12.8884	12.6233	-0.00069927	0.00413804
12.8889	12.6228	-0.000681399	0.00337269
12.8893	12.6224	-0.000603371	0.00222688
12.8898	12.6219	0.000957385	0.00278328
12.8903	12.6214	-9.44144e-05	0.00359205
12.8907	12.6209	-0.000816107	0.00423301
12.8912	12.6205	-0.00075042	0.0033808
12.8917	12.62	-0.000605975	0.00211864
12.8922	12.6195	0.000920574	0.00269453
12.8926	12.6191	-2.09879e-05	0.00359394
12.8931	12.6186	-0.000789033	0.00409257
12.8936	12.6181	-0.000628982	0.00337876
12.8941	12.6176	-0.000590904	0.00218591
12.8945	12.6172	0.000910568	0.00282982
12.895	12.6167	-0.000119687	0.00362147
12.8955	12.6162	-0.000954417	0.00411002
12.8959	12.6157	-0.000461529	0.00330108
12.8964	12.6153	-0.000609577	0.00206775
12.8969	12.6148	0.000926441	0.00278779
12.8974	12.6143	-4.86677e-05	0.00375397
12.8978	12.6138	-0.0010183	0.00400087
12.8983	12.6134	-0.000456661	0.00322463
12.8988	12.6129	-0.000528482	0.00207447
