# 1304     AichiSR QXAFS
# Start     : 8.9544
# End       : 9.0544
# Dir       : Forward
# Points    : 300
# ScanTime  : 1.01549
# Date      : 13.04.23 23:21
# Ring Cur. : 1[mA]
12.7557	12.7562	-0.00126965	0.00375053
12.7562	12.7557	-0.000401711	0.00278779
12.7566	12.7552	0.000419482	0.00249369
12.7571	12.7548	0.00021315	0.00307409
12.7576	12.7543	8.63786e-05	0.00427005
12.7581	12.7538	-0.00126505	0.0037194
12.7585	12.7533	-0.000243925	0.00281237
12.759	12.7529	0.000507444	0.00238004
12.7595	12.7524	6.99705e-05	0.00325872
12.7599	12.752	4.26295e-05	0.00433839
12.7604	12.7515	-0.00128779	0.0038083
12.7609	12.751	-0.00040658	0.00266028
12.7614	12.7505	0.000461627	0.00230907
12.7618	12.7501	0.00015153	0.00301681
12.7623	12.7496	1.37547e-05	0.00430554
12.7628	12.7491	-0.00128319	0.00366023
12.7632	12.7487	-0.000443124	0.00270248
12.7637	12.7482	0.00056086	0.00236823
12.7642	12.7478	4.01681e-06	0.00317792
12.7647	12.7473	-5.80668e-05	0.00426178
12.7651	12.7468	-0.00125585	0.00364638
12.7656	12.7463	-0.000366166	0.00273501
12.7661	12.7459	0.000583332	0.00248747
12.7666	12.7454	-2.61243e-05	0.00313653
12.767	12.7449	-1.69215e-05	0.00435257
12.7675	12.7444	-0.00113467	0.00371113
12.768	12.7439	-0.000410111	0.00249869
12.7684	12.7435	0.000708106	0.00229957
12.7689	12.743	9.86491e-05	0.00319521
12.7694	12.7425	-0.000202048	0.00432143
12.7699	12.7421	-0.0011004	0.0036495
12.7703	12.7416	-0.000413446	0.00253573
12.7708	12.7411	0.000676431	0.00246959
12.7713	12.7407	-8.70128e-05	0.00334918
12.7717	12.7402	-0.000114621	0.00425325
12.7722	12.7397	-0.000963887	0.00366507
12.7727	12.7392	-0.000420117	0.00255908
12.7732	12.7388	0.000801936	0.00247394
12.7736	12.7383	-2.15229e-05	0.00331214
12.7741	12.7378	-0.000193309	0.00437855
12.7746	12.7374	-0.000994296	0.00363409
12.7751	12.7369	-0.000483003	0.00253294
12.7755	12.7364	0.000862022	0.00246862
12.776	12.7359	-7.49387e-05	0.00336442
12.7765	12.7354	-0.000249061	0.00427284
12.7769	12.735	-0.000980224	0.00361927
12.7774	12.7345	-0.000414713	0.00233226
12.7779	12.734	0.000866355	0.00260332
12.7784	12.7335	-1.59227e-05	0.00334156
12.7788	12.7331	-0.000360298	0.00424375
12.7793	12.7326	-0.000967222	0.00362942
12.7798	12.7321	-0.000432387	0.00241011
12.7802	12.7317	0.000819075	0.00260751
12.7807	12.7312	-1.35864e-05	0.00332615
12.7812	12.7307	-0.000242926	0.00434135
12.7817	12.7302	-0.000859588	0.00362164
12.7821	12.7297	-0.000518013	0.0025658
12.7826	12.7293	0.00086129	0.00261669
12.7831	12.7288	-3.53272e-05	0.00337302
12.7836	12.7284	-0.000438522	0.00425604
12.784	12.7279	-0.000853185	0.00359189
12.7845	12.7274	-0.000539486	0.00235438
12.785	12.7269	0.000969121	0.00274296
12.7854	12.7265	-0.00013276	0.00345038
12.7859	12.726	-0.000418048	0.00434339
12.7864	12.7255	-0.000825309	0.00354379
12.7869	12.725	-0.000530283	0.00229613
12.7873	12.7246	0.00103641	0.00264815
12.7878	12.7241	-0.000144228	0.0034194
12.7883	12.7236	-0.000393239	0.00425572
12.7887	12.7231	-0.000759088	0.00346267
12.7892	12.7227	-0.000521348	0.00232013
12.7897	12.7222	0.00109416	0.00258416
12.7902	12.7218	-0.000104349	0.00358894
12.7906	12.7213	-0.000429783	0.00426678
12.7911	12.7208	-0.000910204	0.0033881
12.7916	12.7203	-0.000552292	0.00227433
12.7921	12.7199	0.00098626	0.00269781
12.7925	12.7194	-9.56807e-05	0.00350782
12.793	12.719	-0.000580168	0.00422614
12.7935	12.7185	-0.000738417	0.00346144
12.7939	12.718	-0.00063765	0.00233259
12.7944	12.7175	0.000941245	0.00272288
12.7949	12.7171	-0.000104616	0.00360263
12.7954	12.7166	-0.000601373	0.004278
12.7958	12.7161	-0.000664527	0.00363286
12.7963	12.7156	-0.000544355	0.00222484
12.7968	12.7152	0.00119612	0.00284851
12.7972	12.7147	4.03644e-05	0.00358271
12.7977	12.7142	-0.000558159	0.00417787
12.7982	12.7137	-0.00062158	0.00348463
12.7987	12.7133	-0.000563028	0.00220427
12.7991	12.7128	0.000977592	0.00281909
12.7996	12.7123	3.42292e-05	0.00369105
12.8001	12.7119	-0.000712343	0.00429792
12.8006	12.7114	-0.000530283	0.00355501
12.801	12.7109	-0.00059597	0.00222983
12.8015	12.7104	0.000954317	0.00289382
12.802	12.71	-4.75977e-05	0.00355329
12.8024	12.7095	-0.000760889	0.0042635
12.8029	12.709	-0.000516747	0.00336351
12.8034	12.7086	-0.000521883	0.00220771
12.8039	12.7081	0.000978858	0.00276476
12.8043	12.7076	-0.000106685	0.0036182
12.8048	12.7071	-0.000932943	0.00414411
12.8053	12.7067	-0.000620243	0.00340399
12.8057	12.7062	-0.000631247	0.00212208
12.8062	12.7057	0.000961184	0.00284974
12.8067	12.7052	-2.51255e-05	0.00372858
12.8072	12.7047	-0.000887464	0.00411952
12.8076	12.7043	-0.000525414	0.00338048
12.8081	12.7038	-0.000371766	0.00227761
12.8086	12.7033	0.00102361	0.00281474
12.8091	12.7028	-6.4737e-05	0.00371735
12.8095	12.7024	-0.000805102	0.00415935
12.81	12.7019	-0.000517745	0.00339277
12.8105	12.7014	-0.000544355	0.00219886
12.8109	12.701	0.000999065	0.00284351
12.8114	12.7005	-0.000101013	0.00368982
12.8119	12.7	-0.000860123	0.00420901
12.8124	12.6996	-0.000491671	0.00334746
12.8128	12.6991	-0.000532887	0.00226687
12.8133	12.6986	0.000848949	0.00275509
12.8138	12.6982	3.18928e-05	0.00362303
12.8142	12.6977	-0.000920673	0.00416311
12.8147	12.6972	-0.000462528	0.00334483
12.8152	12.6967	-0.000478401	0.0021842
12.8157	12.6963	0.000833343	0.0027151
12.8161	12.6958	-3.12608e-05	0.00382961
12.8166	12.6953	-0.00108199	0.00408339
12.8171	12.6948	-0.000439789	0.00332459
12.8176	12.6944	-0.000377634	0.00212224
12.818	12.6939	0.000832612	0.00283326
12.8185	12.6934	3.92944e-05	0.00387058
12.819	12.693	-0.00110427	0.0041142
12.8194	12.6925	-0.000436721	0.00339916
12.8199	12.692	-0.000429587	0.00219263
12.8204	12.6916	0.00065469	0.00294455
12.8209	12.6911	-4.73302e-05	0.00381609
12.8213	12.6906	-0.00104158	0.00406954
12.8218	12.6901	-0.000363366	0.0032279
12.8223	12.6897	-0.000334955	0.002161
12.8227	12.6892	0.000660825	0.00288415
12.8232	12.6888	2.7505e-06	0.00390139
12.8237	12.6883	-0.00125431	0.00407093
12.8242	12.6878	-0.000439254	0.00334902
12.8246	12.6873	-0.00024446	0.00217829
12.8251	12.6869	0.000598403	0.00291094
12.8256	12.6864	0.00012879	0.00401177
12.8261	12.6859	-0.00120623	0.00400898
12.8265	12.6854	-0.00043772	0.00332787
12.827	12.6849	-0.000170106	0.00226048
12.8275	12.6845	0.0006897	0.00295389
12.8279	12.684	0.000114986	0.00407061
12.8284	12.6835	-0.0011272	0.00400678
12.8289	12.683	-0.000368966	0.00315629
12.8294	12.6826	-0.000217119	0.00218968
12.8298	12.6821	0.000608676	0.0029089
12.8303	12.6816	8.50411e-05	0.00405176
12.8308	12.6812	-0.00127912	0.00404135
12.8312	12.6807	-0.000307079	0.00312515
12.8317	12.6802	-9.23456e-05	0.00220181
12.8322	12.6797	0.000629882	0.0029307
12.8327	12.6793	0.000214951	0.00404806
12.8331	12.6788	-0.00114794	0.00389156
12.8336	12.6783	-0.000358497	0.00311769
12.8341	12.6779	-3.09933e-05	0.00227154
12.8346	12.6774	0.000626814	0.00300387
12.835	12.6769	0.000121121	0.00408822
12.8355	12.6764	-0.00131873	0.00390107
12.836	12.6759	-0.000237594	0.0031149
12.8364	12.6755	-1.92578e-05	0.0022032
12.8369	12.675	0.000669761	0.00286407
12.8374	12.6745	7.89771e-05	0.00405848
12.8379	12.674	-0.00134814	0.00379568
12.8383	12.6736	-0.000284339	0.0030509
12.8388	12.6731	8.88573e-06	0.00218935
12.8393	12.6726	0.000591536	0.00285285
12.8397	12.6722	0.000192479	0.00412354
12.8402	12.6717	-0.00141663	0.00385592
12.8407	12.6712	-0.00038557	0.00303222
12.8412	12.6708	6.07677e-05	0.00223541
12.8416	12.6703	0.000364729	0.00295175
12.8421	12.6698	0.000132125	0.00410175
12.8426	12.6694	-0.00150612	0.00398063
12.8431	12.6689	-0.000321685	0.00293209
12.8435	12.6684	0.000101449	0.00222656
12.844	12.668	0.000265834	0.00302755
12.8445	12.6675	0.000179138	0.00426973
12.8449	12.667	-0.0013154	0.00380503
12.8454	12.6665	-0.000310681	0.00302583
12.8459	12.6661	6.85079e-05	0.00231857
12.8464	12.6656	0.000319785	0.00297928
12.8468	12.6651	0.000175874	0.00414862
12.8473	12.6646	-0.00140562	0.0039299
12.8478	12.6642	-0.000337755	0.00303689
12.8482	12.6637	0.000217287	0.00241166
12.8487	12.6632	0.000351995	0.00299362
12.8492	12.6627	0.000131858	0.0042948
12.8497	12.6623	-0.00141509	0.00374136
12.8501	12.6618	-0.000258799	0.00291685
12.8506	12.6614	0.000167135	0.00234284
12.8511	12.6609	0.000272237	0.00303828
12.8516	12.6604	0.000218019	0.00420762
12.852	12.6599	-0.00137268	0.00388582
12.8525	12.6595	-0.000287407	0.00281114
12.853	12.659	0.000384936	0.00233366
12.8534	12.6585	0.000255365	0.00296651
12.8539	12.6581	0.000150264	0.00428595
12.8544	12.6576	-0.001308	0.00371473
12.8549	12.6571	-0.000297412	0.00289505
12.8553	12.6566	0.000274769	0.00222935
12.8558	12.6562	0.000200612	0.00306647
12.8563	12.6557	0.000106514	0.00424514
12.8567	12.6552	-0.00139749	0.00373652
12.8572	12.6547	-0.000335222	0.00277812
12.8577	12.6542	0.000493105	0.0023925
12.8582	12.6538	6.13027e-05	0.00302443
12.8586	12.6533	0.000230557	0.00426662
12.8591	12.6528	-0.00130493	0.00372219
12.8596	12.6524	-0.000268733	0.0027101
12.8601	12.6519	0.000480835	0.00233817
12.8605	12.6514	9.55815e-05	0.00303952
12.861	12.651	0.000257363	0.00420187
12.8615	12.6505	-0.00129979	0.00362958
12.8619	12.65	-0.000309682	0.00266962
12.8624	12.6495	0.000402611	0.00234939
12.8629	12.6491	0.000148997	0.00316923
12.8634	12.6486	3.75643e-05	0.00416869
12.8638	12.6481	-0.0012073	0.00355813
12.8643	12.6476	-0.000408114	0.00269609
12.8648	12.6472	0.000539119	0.00229554
12.8652	12.6467	3.98294e-05	0.00323225
12.8657	12.6462	6.46378e-05	0.00439551
12.8662	12.6457	-0.00127605	0.00366023
12.8667	12.6452	-0.000381504	0.00265749
12.8671	12.6448	0.000522515	0.00241134
12.8676	12.6443	1.04195e-05	0.0031725
12.8681	12.6438	5.0566e-05	0.00426039
12.8686	12.6433	-0.00124151	0.0036168
12.869	12.6429	-0.000435455	0.00266323
12.8695	12.6424	0.000630149	0.00236775
12.87	12.642	0.000132125	0.00314555
12.8704	12.6415	-2.30567e-05	0.00436535
12.8709	12.641	-0.00125865	0.00359017
12.8714	12.6406	-0.000324218	0.00268487
12.8719	12.6401	0.000661557	0.00248435
12.8723	12.6396	-1.11961e-06	0.00323413
12.8728	12.6392	-7.64725e-05	0.00422507
12.8733	12.6387	-0.001115	0.00382199
12.8737	12.6382	-0.000393507	0.00261513
12.8742	12.6378	0.000778928	0.00245247
12.8747	12.6373	-1.95253e-05	0.00327617
12.8752	12.6368	-0.000162901	0.00436421
12.8756	12.6363	-0.00112954	0.00362491
12.8761	12.6359	-0.000453593	0.00261996
12.8766	12.6354	0.000852284	0.00250073
12.8771	12.6349	-5.18604e-06	0.00319988
12.8775	12.6344	-0.000123753	0.00424342
12.878	12.6339	-0.00098816	0.00371505
12.8785	12.6335	-0.000413179	0.00249262
12.8789	12.633	0.000804201	0.00250943
12.8794	12.6325	5.92339e-05	0.00331648
12.8799	12.6321	-6.62708e-05	0.00429996
12.8804	12.6316	-0.00111167	0.00359812
12.8808	12.6311	-0.000433386	0.00260332
12.8813	12.6307	0.00086302	0.0025622
12.8818	12.6302	2.54901e-05	0.00328706
12.8822	12.6297	-0.000341357	0.00427161
12.8827	12.6293	-0.0010043	0.00356215
12.8832	12.6288	-0.000480934	0.00247534
12.8837	12.6283	0.000890629	0.00252
12.8841	12.6279	3.36942e-05	0.00328518
12.8846	12.6274	-0.000315015	0.00431799
12.8851	12.6269	-0.000948549	0.0035978
12.8856	12.6264	-0.00043772	0.00261841
12.886	12.6259	0.000955316	0.00262668
12.8865	12.6255	-3.38473e-06	0.0033772
12.887	12.625	-0.000255464	0.00417353
12.8874	12.6245	-0.000984094	0.00360402
12.8879	12.624	-0.000514945	0.00242503
12.8884	12.6235	0.000832344	0.00261996
12.8889	12.6231	-5.40004e-05	0.00332287
12.8893	12.6226	-0.000395041	0.00430291
12.8898	12.6221	-0.000842181	0.0035687
12.8903	12.6217	-0.000503941	0.00238208
12.8907	12.6212	0.000934645	0.00256392
12.8912	12.6207	-0.000149364	0.00339744
12.8917	12.6202	-0.000490404	0.00421868
12.8922	12.6198	-0.000850653	0.00360591
12.8926	12.6193	-0.000468663	0.00237741
12.8931	12.6188	0.000965054	0.00254523
12.8936	12.6184	-3.40609e-05	0.00354551
12.8941	12.6179	-0.000481469	0.00417541
12.8945	12.6174	-0.000751954	0.00352962
12.895	12.6169	-0.000527216	0.00227171
12.8955	12.6165	0.000960185	0.00257293
12.8959	12.616	-0.000124021	0.00340662
12.8964	12.6155	-0.000506741	0.00429915
12.8969	12.615	-0.000860319	0.00355034
12.8974	12.6146	-0.000627181	0.0023139
12.8978	12.6141	0.000923909	0.00259833
12.8983	12.6136	-4.9399e-05	0.0034748
12.8988	12.6132	-0.00050041	0.00428997
