# 1304     AichiSR QXAFS
# Start     : 8.9544
# End       : 9.0544
# Dir       : Forward
# Points    : 300
# ScanTime  : 1.01549
# Date      : 13.04.24 00:36
# Ring Cur. : 1[mA]
12.7557	12.7562	4.92997e-05	0.00428202
12.7562	12.7558	-0.00117529	0.00360402
12.7566	12.7553	-0.000478865	0.00256531
12.7571	12.7548	0.000757723	0.00234767
12.7576	12.7543	6.08561e-06	0.00322307
12.7581	12.7539	-0.000115085	0.00427005
12.7585	12.7534	-0.00126198	0.0035701
12.759	12.7529	-0.000450525	0.00251533
12.7595	12.7525	0.00065189	0.0024755
12.7599	12.752	6.07677e-05	0.00313776
12.7604	12.7515	-0.000207916	0.0042372
12.7609	12.7511	-0.00111113	0.00354412
12.7614	12.7506	-0.000536686	0.00247157
12.7618	12.7501	0.000700437	0.00247952
12.7623	12.7497	4.85382e-07	0.00325126
12.7628	12.7492	-0.000357962	0.00409257
12.7632	12.7487	-0.00103544	0.00347357
12.7637	12.7483	-0.000490404	0.00243625
12.7642	12.7478	0.000818344	0.00256735
12.7647	12.7473	-3.65935e-05	0.00332287
12.7651	12.7468	-0.000395041	0.00424359
12.7656	12.7464	-0.000958483	0.00350487
12.7661	12.7459	-0.000557624	0.00234987
12.7666	12.7454	0.000829009	0.00242396
12.767	12.7449	-3.11723e-06	0.00329813
12.7675	12.7445	-0.000497342	0.00419672
12.768	12.744	-0.00105312	0.00352339
12.7684	12.7435	-0.000535152	0.00237462
12.7689	12.7431	0.00081574	0.00258727
12.7694	12.7426	-0.000170837	0.00326683
12.7699	12.7421	-0.000435455	0.00428514
12.7703	12.7417	-0.000964155	0.00346423
12.7708	12.7412	-0.000536954	0.00234504
12.7713	12.7407	0.000973526	0.00261406
12.7717	12.7402	-6.60034e-05	0.00354035
12.7722	12.7398	-0.000480203	0.00424793
12.7727	12.7393	-0.000832978	0.00348962
12.7732	12.7388	-0.000667791	0.0022636
12.7736	12.7384	0.000950251	0.00277394
12.7741	12.7379	-0.000130958	0.00346251
12.7746	12.7374	-0.000544088	0.00431053
12.7751	12.7369	-0.000871859	0.00356961
12.7755	12.7365	-0.000601373	0.00239717
12.776	12.736	0.000908036	0.00262947
12.7765	12.7355	-9.26131e-05	0.0035265
12.7769	12.735	-0.000606706	0.00411732
12.7774	12.7345	-0.00073255	0.00354379
12.7779	12.7341	-0.000665526	0.0021719
12.7784	12.7336	0.00105175	0.0026452
12.7788	12.7331	-0.000148829	0.00339433
12.7793	12.7326	-0.000703604	0.00422318
12.7798	12.7322	-0.000695203	0.00352511
12.7802	12.7317	-0.000639451	0.00229006
12.7807	12.7312	0.000956583	0.00278688
12.7812	12.7308	-0.000117154	0.00352446
12.7817	12.7303	-0.000943413	0.00420015
12.7821	12.7298	-0.000674461	0.00342096
12.7826	12.7293	-0.000681399	0.00212536
12.7831	12.7289	0.000854816	0.00264316
12.7836	12.7284	-0.000146831	0.00364794
12.784	12.7279	-0.000893796	0.0041178
12.7845	12.7275	-0.000548421	0.00328068
12.785	12.727	-0.00071154	0.00217346
12.7854	12.7265	0.000920306	0.00275853
12.7859	12.726	-7.60087e-05	0.00365385
12.7864	12.7256	-0.000852187	0.00407512
12.7869	12.7251	-0.00054102	0.00332803
12.7873	12.7246	-0.000543089	0.00217158
12.7878	12.7241	0.000859221	0.00275558
12.7883	12.7237	9.71153e-05	0.00355002
12.7887	12.7232	-0.000962353	0.00414706
12.7892	12.7227	-0.000504209	0.00333098
12.7897	12.7223	-0.000633851	0.0021492
12.7902	12.7218	0.00092464	0.00272551
12.7906	12.7213	2.03537e-05	0.00367876
12.7911	12.7209	-0.00100963	0.00406438
12.7916	12.7204	-0.000423648	0.00336008
12.7921	12.7199	-0.000450258	0.00209143
12.7925	12.7195	0.000863288	0.00281458
12.793	12.719	-0.000137361	0.00376111
12.7935	12.7185	-0.00111167	0.00398842
12.7939	12.7181	-0.000407579	0.00335589
12.7944	12.7176	-0.000432387	0.00213486
12.7949	12.7171	0.000775326	0.00279713
12.7954	12.7167	-7.7275e-05	0.00372562
12.7958	12.7162	-0.00116175	0.00405504
12.7963	12.7157	-0.000431317	0.00321233
12.7968	12.7152	-0.000356428	0.00208332
12.7972	12.7147	0.000765392	0.00286236
12.7977	12.7142	1.24883e-05	0.00384255
12.7982	12.7138	-0.00126071	0.00401037
12.7987	12.7133	-0.000380166	0.00326494
12.7991	12.7128	-0.000465863	0.00221812
12.7996	12.7124	0.000700437	0.00280942
12.8001	12.7119	3.5763e-05	0.00394171
12.8006	12.7115	-0.00129626	0.00394794
12.801	12.711	-0.000443124	0.00309589
12.8015	12.7105	-0.000339556	0.00216632
12.802	12.71	0.000581335	0.00278934
12.8024	12.7096	0.00010045	0.00387025
12.8029	12.7091	-0.00127759	0.00385469
12.8034	12.7086	-0.000439254	0.00300887
12.8039	12.7082	-0.000262598	0.00213953
12.8043	12.7077	0.000651087	0.00286252
12.8048	12.7072	9.88454e-05	0.00397097
12.8053	12.7067	-0.00135608	0.0038841
12.8057	12.7062	-0.000439521	0.00314743
12.8062	12.7058	-0.000126357	0.0021769
12.8067	12.7053	0.000521249	0.00289725
12.8072	12.7048	0.000143861	0.00402095
12.8076	12.7043	-0.00130926	0.00378634
12.8081	12.7038	-0.000309147	0.00316874
12.8086	12.7034	-9.78746e-06	0.00216412
12.8091	12.7029	0.000451425	0.00290423
12.8095	12.7024	5.46325e-05	0.00409429
12.81	12.702	-0.00151966	0.00381281
12.8105	12.7015	-0.000340091	0.00304746
12.8109	12.701	-7.93438e-05	0.00225753
12.8114	12.7005	0.00045476	0.00295733
12.8119	12.7001	0.000126989	0.00411871
12.8124	12.6996	-0.00145578	0.00379085
12.8128	12.6991	-0.000406045	0.00292512
12.8133	12.6987	2.44913e-05	0.00232013
12.8138	12.6982	0.000371934	0.00295282
12.8142	12.6978	0.000183276	0.00407684
12.8147	12.6973	-0.00150992	0.00378774
12.8152	12.6968	-0.000343426	0.00285645
12.8157	12.6963	0.000184542	0.00229506
12.8161	12.6958	0.000295708	0.00296339
12.8166	12.6954	6.46378e-05	0.00412027
12.8171	12.6949	-0.00165237	0.003777
12.8176	12.6944	-0.000274601	0.00284802
12.818	12.6939	0.000128523	0.00239175
12.8185	12.6935	0.000328453	0.00301198
12.819	12.693	0.000321319	0.00423441
12.8194	12.6925	-0.00144684	0.00372391
12.8199	12.6921	-0.000319617	0.00287776
12.8204	12.6916	0.000217751	0.00228244
12.8209	12.6912	0.000299845	0.0030101
12.8213	12.6907	0.000147463	0.00422007
12.8218	12.6902	-0.00147878	0.00375988
12.8223	12.6897	-0.000289208	0.0027909
12.8227	12.6893	0.000304179	0.00226564
12.8232	12.6888	9.14438e-05	0.00290112
12.8237	12.6883	0.000222353	0.00426571
12.8242	12.6879	-0.00129626	0.00358051
12.8246	12.6874	-0.000254929	0.00271354
12.8251	12.6869	0.000290375	0.00233849
12.8256	12.6864	4.84972e-05	0.00293086
12.8261	12.686	0.00013546	0.00427923
12.8265	12.6855	-0.0014317	0.00359222
12.827	12.685	-0.000310414	0.00269658
12.8275	12.6845	0.000452495	0.00217706
12.8279	12.684	6.89717e-05	0.00298723
12.8284	12.6836	0.000110117	0.00426178
12.8289	12.6831	-0.00135581	0.00358878
12.8294	12.6826	-0.000420384	0.00252966
12.8298	12.6822	0.000342257	0.0023103
12.8303	12.6817	3.16253e-05	0.00308172
12.8308	12.6812	-6.44695e-05	0.00426087
12.8312	12.6807	-0.00126425	0.00359222
12.8317	12.6803	-0.000526948	0.00254335
12.8322	12.6798	0.000503842	0.00235454
12.8327	12.6793	7.10405e-05	0.00312187
12.8331	12.6789	-6.9071e-05	0.00424514
12.8336	12.6784	-0.0013154	0.00362115
12.8341	12.6779	-0.000415783	0.00253417
12.8346	12.6774	0.000612742	0.00236619
12.835	12.677	5.4365e-05	0.00311957
12.8355	12.6765	-6.16694e-05	0.00428079
12.836	12.676	-0.00117429	0.00353273
12.8364	12.6755	-0.000404779	0.00264192
12.8369	12.675	0.000610477	0.00238847
12.8374	12.6746	-4.75977e-05	0.00314571
12.8379	12.6741	-0.000152164	0.00419049
12.8383	12.6736	-0.00115381	0.00355748
12.8388	12.6731	-0.000423184	0.00255146
12.8393	12.6727	0.000638817	0.00255269
12.8397	12.6722	-0.000188708	0.00318587
12.8402	12.6718	-0.000351827	0.00422474
12.8407	12.6713	-0.00117149	0.00349225
12.8412	12.6708	-0.000505207	0.00251893
12.8416	12.6703	0.000746183	0.00241338
12.8421	12.6699	-4.32637e-05	0.0032992
12.8426	12.6694	-0.000219652	0.00421803
12.8431	12.6689	-0.000952615	0.0035796
12.8435	12.6685	-0.000479668	0.0022935
12.844	12.668	0.000825674	0.00250336
12.8445	12.6675	7.88692e-06	0.00330623
12.8449	12.6671	-0.000302281	0.00421261
12.8454	12.6666	-0.000998897	0.0035206
12.8459	12.6661	-0.000498805	0.00233865
12.8464	12.6656	0.000831613	0.00251082
12.8468	12.6652	1.98899e-05	0.00333844
12.8473	12.6647	-0.000304814	0.00418287
12.8478	12.6642	-0.000868791	0.00352543
12.8482	12.6637	-0.000533351	0.00233178
12.8487	12.6633	0.000923374	0.00260563
12.8492	12.6628	1.0687e-05	0.00337114
12.8497	12.6623	-0.000452059	0.00434586
12.8501	12.6619	-0.000912005	0.00357026
12.8506	12.6614	-0.000588104	0.00228523
12.8511	12.6609	0.000983192	0.00259522
12.8516	12.6605	-6.19369e-05	0.00342284
12.852	12.66	-0.000538684	0.004254
12.8525	12.6595	-0.000929073	0.00338547
12.853	12.6591	-0.000637917	0.00220943
12.8534	12.6586	0.000966855	0.00264348
12.8539	12.6581	-0.000205116	0.00338375
12.8544	12.6577	-0.000621313	0.00415001
12.8549	12.6572	-0.000729946	0.00347029
12.8553	12.6567	-0.000584234	0.00224835
12.8558	12.6562	0.00095405	0.00254244
12.8563	12.6557	-0.000165166	0.00339433
12.8567	12.6553	-0.000627912	0.00423424
12.8572	12.6548	-0.000721545	0.00348881
12.8577	12.6543	-0.000719209	0.0021515
12.8582	12.6538	0.001021	0.00269749
12.8586	12.6534	-0.000176973	0.0035469
12.8591	12.6529	-0.000673462	0.00418442
12.8596	12.6524	-0.000690334	0.00347513
12.8601	12.652	-0.000701071	0.00201702
12.8605	12.6515	0.000957849	0.00274312
12.861	12.651	-0.000166967	0.00359796
12.8615	12.6505	-0.000784432	0.00405085
12.8619	12.6501	-0.000621313	0.00333812
12.8624	12.6496	-0.000646121	0.00208488
12.8629	12.6491	0.000977325	0.00270871
12.8634	12.6487	-0.000171569	0.00358395
12.8638	12.6482	-0.000864457	0.00406782
12.8643	12.6477	-0.000618709	0.00336491
12.8648	12.6472	-0.000519547	0.00210946
12.8652	12.6467	0.000969656	0.0027537
12.8657	12.6463	-0.00018564	0.00366786
12.8662	12.6458	-0.000790567	0.00413911
12.8667	12.6453	-0.000599037	0.0033895
12.8671	12.6448	-0.000605707	0.00208193
12.8676	12.6443	0.000933843	0.00278451
12.8681	12.6439	-8.90105e-05	0.00368252
12.8686	12.6434	-0.000860587	0.00413476
12.869	12.6429	-0.000496005	0.00328395
12.8695	12.6425	-0.000566631	0.00217362
12.87	12.642	0.000755119	0.00273689
12.8704	12.6416	-4.11604e-06	0.00371628
12.8709	12.6411	-0.00108866	0.00398079
12.8714	12.6406	-0.000456126	0.00325174
12.8719	12.6401	-0.000513411	0.0022622
12.8723	12.6397	0.000808873	0.00282875
12.8728	12.6392	-4.01961e-05	0.00379413
12.8733	12.6387	-0.00113928	0.00401268
12.8737	12.6383	-0.000465596	0.00327273
12.8742	12.6378	-0.00045386	0.00203678
12.8747	12.6373	0.000766123	0.00277984
12.8752	12.6369	0.00012319	0.00384116
12.8756	12.6364	-0.00115868	0.00400538
12.8761	12.6359	-0.00037997	0.00312687
12.8766	12.6354	-0.000407311	0.00211618
12.8771	12.635	0.000605073	0.00291078
12.8775	12.6345	-0.000104081	0.00376701
12.878	12.634	-0.00117022	0.00397252
12.8785	12.6335	-0.000481201	0.00315677
12.8789	12.6331	-0.000330353	0.00229613
12.8794	12.6326	0.00054859	0.0027632
12.8799	12.6321	-0.00011282	0.00396211
12.8804	12.6317	-0.00118449	0.00404554
12.8808	12.6312	-0.00034776	0.00319676
12.8813	12.6307	-0.000342624	0.00210979
12.8818	12.6302	0.000560593	0.00276148
12.8822	12.6298	0.000105248	0.00390778
12.8827	12.6293	-0.00131513	0.00394761
12.8832	12.6289	-0.000413179	0.00312236
12.8837	12.6284	-0.000229389	0.00211725
12.8841	12.6279	0.000542722	0.00292635
12.8846	12.6274	9.4779e-05	0.0039467
12.8851	12.627	-0.00135528	0.00391803
12.8856	12.6265	-0.00030888	0.00309573
12.886	12.626	-0.00014676	0.00215166
12.8865	12.6255	0.000476501	0.00296946
12.887	12.625	3.67618e-05	0.0040289
12.8874	12.6245	-0.00134814	0.00378962
12.8879	12.6241	-0.000331887	0.00297461
12.8884	12.6236	-0.000145298	0.00216567
12.8889	12.6231	0.000384936	0.00290627
12.8893	12.6227	0.000150264	0.00388099
12.8898	12.6222	-0.00140643	0.00377421
12.8903	12.6217	-0.00035336	0.00290283
12.8907	12.6213	-4.55289e-05	0.00224508
12.8912	12.6208	0.000397742	0.0027137
12.8917	12.6203	9.55815e-05	0.00402144
12.8922	12.6198	-0.00154267	0.00377577
12.8926	12.6194	-0.000287942	0.00296495
12.8931	12.6189	0.00011092	0.00228883
12.8936	12.6184	0.000424815	0.00290504
12.8941	12.618	0.000119855	0.00413444
12.8945	12.6175	-0.0013218	0.00370989
12.895	12.617	-0.000317352	0.00282359
12.8955	12.6165	7.71758e-05	0.00219837
12.8959	12.6161	0.000373468	0.00299625
12.8964	12.6156	0.000144931	0.00423564
12.8969	12.6151	-0.00148952	0.00364966
12.8974	12.6146	-0.000313481	0.00291733
12.8978	12.6141	0.000162802	0.00224647
12.8983	12.6137	0.000170203	0.00297928
12.8988	12.6132	0.000121656	0.00435036
