# 1304     AichiSR QXAFS
# Start     : 8.9544
# End       : 9.0544
# Dir       : Backward
# Points    : 300
# ScanTime  : 1.01549
# Date      : 13.04.24 00:23
# Ring Cur. : 1[mA]
12.7557	12.6124	-1.87228e-05	0.00386854
12.7562	12.6129	-0.00126118	0.00396055
12.7566	12.6133	-0.000461262	0.0032533
12.7571	12.6138	-0.000318618	0.00210667
12.7576	12.6143	0.000646486	0.00289177
12.7581	12.6147	7.66408e-05	0.00404774
12.7585	12.6152	-0.00119449	0.00383445
12.759	12.6157	-0.000503941	0.00315661
12.7595	12.6162	-0.000204581	0.00218624
12.7599	12.6166	0.000524584	0.00292775
12.7604	12.6171	1.52885e-05	0.00400275
12.7609	12.6176	-0.00125811	0.00386714
12.7614	12.6181	-0.000420117	0.00315972
12.7618	12.6185	-0.000249596	0.00221845
12.7623	12.619	0.00056646	0.00284851
12.7628	12.6195	-5.91735e-06	0.00394794
12.7632	12.6199	-0.00122463	0.00390622
12.7637	12.6204	-0.000444925	0.00312408
12.7642	12.6209	-0.000150166	0.00228556
12.7647	12.6214	0.00051918	0.00294331
12.7651	12.6218	-6.19369e-05	0.00407093
12.7656	12.6223	-0.00131693	0.00395261
12.7661	12.6228	-0.000409112	0.00305541
12.7666	12.6232	-3.11723e-06	0.00231702
12.767	12.6237	0.000424886	0.00294052
12.7675	12.6242	4.2897e-05	0.00405225
12.768	12.6247	-0.00134734	0.00389795
12.7684	12.6251	-0.000423719	0.00304124
12.7689	12.6256	-9.62157e-05	0.00223836
12.7694	12.6261	0.00041415	0.00290939
12.7699	12.6266	3.11615e-05	0.00414346
12.7703	12.6271	-0.00152173	0.00385034
12.7708	12.6275	-0.000305081	0.00313825
12.7713	12.628	-5.45354e-05	0.00226859
12.7717	12.6285	0.000402611	0.00293413
12.7722	12.6289	0.000187342	0.00418426
12.7727	12.6294	-0.00136375	0.00380159
12.7732	12.6299	-0.0003677	0.00299781
12.7736	12.6303	4.16307e-05	0.00230161
12.7741	12.6308	0.000334855	0.00302272
12.7746	12.6313	9.25138e-05	0.00409101
12.7751	12.6318	-0.00136961	0.003836
12.7755	12.6322	-0.000319349	0.00310539
12.776	12.6327	0.000150995	0.00226392
12.7765	12.6332	0.000269704	0.00301058
12.7769	12.6336	0.000124724	0.00425948
12.7774	12.6341	-0.00147111	0.00380003
12.7779	12.6346	-0.000446459	0.0029919
12.7784	12.635	0.00012599	0.00225409
12.7788	12.6355	0.000319785	0.00298723
12.7793	12.636	0.000225688	0.00405332
12.7798	12.6365	-0.00145677	0.00378962
12.7802	12.6369	-0.000333956	0.00286612
12.7807	12.6374	5.81811e-06	0.00224196
12.7812	12.6379	0.00017814	0.00291406
12.7817	12.6384	0.000297777	0.00425432
12.7821	12.6388	-0.00153707	0.00371644
12.7826	12.6393	-0.000355429	0.00298486
12.7831	12.6398	3.62268e-05	0.00213175
12.7836	12.6402	0.000146197	0.00299657
12.784	12.6407	0.000146928	0.00429045
12.7845	12.6412	-0.00136862	0.0036881
12.785	12.6417	-0.000388174	0.00288603
12.7854	12.6421	0.000275304	0.00232555
12.7859	12.6426	0.000299578	0.00309712
12.7864	12.643	0.000148997	0.00423859
12.7869	12.6435	-0.0014353	0.00376127
12.7873	12.644	-0.000340091	0.00282392
12.7878	12.6444	0.000202413	0.00234021
12.7883	12.6449	9.96479e-05	0.00321529
12.7887	12.6454	0.000317181	0.00429201
12.7892	12.6459	-0.00147211	0.00365728
12.7897	12.6464	-0.000429052	0.00285489
12.7902	12.6468	0.000278105	0.00228572
12.7906	12.6473	6.92392e-05	0.00312408
12.7911	12.6478	5.30987e-05	0.00425153
12.7916	12.6483	-0.00143683	0.00366163
12.7921	12.6487	-0.000457463	0.00259382
12.7925	12.6492	0.000423549	0.00239438
12.793	12.6497	3.98294e-05	0.00310679
12.7935	12.6501	0.000107584	0.00429464
12.7939	12.6506	-0.00136268	0.00377528
12.7944	12.6511	-0.000408845	0.00275821
12.7949	12.6516	0.000411011	0.00231309
12.7954	12.6521	7.0238e-05	0.00314866
12.7958	12.6525	-2.45905e-05	0.00421073
12.7963	12.653	-0.001307	0.00353617
12.7968	12.6535	-0.000358961	0.0027115
12.7972	12.6539	0.000529382	0.00245231
12.7977	12.6544	5.5435e-05	0.00327896
12.7982	12.6549	3.64943e-05	0.00435085
12.7987	12.6554	-0.00120676	0.00364483
12.7991	12.6558	-0.000539754	0.00266152
12.7996	12.6563	0.00052585	0.00245305
12.8001	12.6568	-4.75977e-05	0.00318587
12.8006	12.6573	1.5556e-05	0.00429029
12.801	12.6577	-0.00119936	0.00359017
12.8015	12.6582	-0.000577564	0.00266807
12.802	12.6587	0.000591536	0.00240356
12.8024	12.6591	5.74326e-05	0.00313916
12.8029	12.6596	-6.29357e-05	0.0043116
12.8034	12.6601	-0.00121723	0.00374865
12.8039	12.6605	-0.000343159	0.00253761
12.8043	12.661	0.000583867	0.00249058
12.8048	12.6615	3.92944e-05	0.00327477
12.8053	12.662	-0.000203047	0.00429652
12.8057	12.6624	-0.00119449	0.00371113
12.8062	12.6629	-0.000486802	0.00250664
12.8067	12.6634	0.000695835	0.00249746
12.8072	12.6638	-0.000109949	0.00331648
12.8076	12.6643	-0.000255197	0.00423924
12.8081	12.6648	-0.00104825	0.0036481
12.8086	12.6652	-0.000495006	0.00256735
12.8091	12.6657	0.000771259	0.00246723
12.8095	12.6662	-0.000110216	0.00320782
12.81	12.6667	-0.000230388	0.0042059
12.8105	12.6672	-0.00119936	0.00359501
12.8109	12.6676	-0.000565026	0.00249279
12.8114	12.6681	0.000698903	0.00248886
12.8119	12.6686	-8.9813e-05	0.00334762
12.8124	12.669	-0.000283608	0.00427784
12.8128	12.6695	-0.00106052	0.00361573
12.8133	12.67	-0.000555627	0.00236496
12.8138	12.6704	0.000753852	0.0025345
12.8142	12.6709	-3.43284e-05	0.00326264
12.8147	12.6714	-0.00042165	0.00427456
12.8152	12.6718	-0.000974356	0.00352151
12.8157	12.6723	-0.000525414	0.00240527
12.8161	12.6728	0.000872491	0.00259505
12.8166	12.6732	-6.37382e-05	0.00339744
12.8171	12.6737	-0.000433653	0.00414067
12.8176	12.6742	-0.00093141	0.00354068
12.818	12.6747	-0.000525949	0.00242911
12.8185	12.6751	0.000953319	0.00255302
12.819	12.6756	-9.61445e-05	0.0033881
12.8194	12.6761	-0.000555092	0.00430602
12.8199	12.6766	-0.000934745	0.00351126
12.8204	12.6771	-0.000576565	0.00245698
12.8209	12.6775	0.000890165	0.00268224
12.8213	12.678	-0.000194112	0.00339481
12.8218	12.6785	-0.000511878	0.00419795
12.8223	12.679	-0.000964422	0.00345489
12.8227	12.6794	-0.000598573	0.00230784
12.8232	12.6799	0.000927975	0.00263865
12.8237	12.6804	-0.000148294	0.00349241
12.8242	12.6808	-0.000672464	0.0042249
12.8246	12.6813	-0.000857056	0.00346455
12.8251	12.6818	-0.000690067	0.00231546
12.8256	12.6823	0.0010182	0.00270838
12.8261	12.6827	-0.000120489	0.00347529
12.8265	12.6832	-0.000619512	0.0042045
12.827	12.6836	-0.000839114	0.00355904
12.8275	12.6841	-0.000601837	0.00241773
12.8279	12.6846	0.000984726	0.0027224
12.8284	12.6851	-0.000102351	0.00357911
12.8289	12.6856	-0.000624113	0.004254
12.8294	12.686	-0.000708205	0.00357632
12.8298	12.6865	-0.000572695	0.00214871
12.8303	12.687	0.000962985	0.00266807
12.8308	12.6875	-7.16036e-05	0.00346407
12.8312	12.688	-0.000759623	0.00415935
12.8317	12.6884	-0.000903266	0.00358132
12.8322	12.6889	-0.00068773	0.00228212
12.8327	12.6894	0.000925443	0.00276615
12.8331	12.6898	-0.00015063	0.00361992
12.8336	12.6903	-0.000677261	0.00415017
12.8341	12.6908	-0.000694133	0.00353633
12.8346	12.6912	-0.000659658	0.0021179
12.835	12.6917	0.000916507	0.00263677
12.8355	12.6922	-0.000173637	0.00367785
12.836	12.6926	-0.000780294	0.00416279
12.8364	12.6931	-0.000646121	0.00353461
12.8369	12.6936	-0.000641252	0.00227965
12.8374	12.694	0.00103768	0.00266528
12.8379	12.6945	-0.000112018	0.00364171
12.8383	12.695	-0.000886662	0.00418754
12.8388	12.6955	-0.000507276	0.00349676
12.8393	12.6959	-0.000668861	0.00227793
12.8397	12.6964	0.000966855	0.00274607
12.8402	12.6969	-0.000117689	0.00357272
12.8407	12.6974	-0.000891798	0.00418163
12.8412	12.6978	-0.00058163	0.0033014
12.8416	12.6983	-0.000656591	0.0023008
12.8421	12.6988	0.000936911	0.00274886
12.8426	12.6992	-4.5065e-05	0.00376889
12.8431	12.6997	-0.000999967	0.00418115
12.8435	12.7001	-0.00072101	0.00340211
12.844	12.7006	-0.000643054	0.00213486
12.8445	12.7011	0.000833878	0.00283777
12.8449	12.7016	-5.7068e-05	0.00365884
12.8454	12.7021	-0.00107152	0.00412199
12.8459	12.7025	-0.000600838	0.0033364
12.8464	12.703	-0.000558891	0.00216584
12.8468	12.7035	0.000708106	0.00281114
12.8473	12.7039	-0.000128889	0.00380068
12.8478	12.7044	-0.00100657	0.00406503
12.8482	12.7049	-0.000485803	0.00338499
12.8487	12.7054	-0.000483003	0.00216396
12.8492	12.7059	0.000722178	0.00290316
12.8497	12.7063	-0.000166503	0.00380019
12.8501	12.7068	-0.00102804	0.00411936
12.8506	12.7073	-0.000558427	0.00335992
12.8511	12.7078	-0.000547155	0.00207521
12.8516	12.7083	0.000715775	0.00287637
12.852	12.7087	-0.00020665	0.00378602
12.8525	12.7092	-0.00124331	0.00400678
12.853	12.7096	-0.000557624	0.00337565
12.8534	12.7101	-0.00044159	0.00212552
12.8539	12.7106	0.000785331	0.00288152
12.8544	12.7111	6.18377e-05	0.00383912
12.8549	12.7115	-0.00121443	0.00401521
12.8553	12.712	-0.000366166	0.00318399
12.8558	12.7125	-0.000388638	0.00210512
12.8563	12.7129	0.000652889	0.00287202
12.8567	12.7134	6.46378e-05	0.00392786
12.8572	12.7139	-0.00129699	0.00390107
12.8577	12.7143	-0.000529017	0.00315629
12.8582	12.7148	-0.000390172	0.00222795
12.8586	12.7153	0.000600739	0.00274854
12.8591	12.7158	-7.57412e-05	0.00386558
12.8596	12.7163	-0.00131747	0.00407126
12.8601	12.7167	-0.000500873	0.00326666
12.8605	12.7172	-0.000347493	0.00217657
12.861	12.7177	0.000700972	0.00284244
12.8615	12.7182	7.35192e-06	0.00378495
12.8619	12.7186	-0.00129212	0.00390311
12.8624	12.7191	-0.000441322	0.00310523
12.8629	12.7196	-0.000222255	0.00223729
12.8634	12.72	0.000628348	0.00293134
12.8638	12.7205	-2.33242e-05	0.00397408
12.8643	12.721	-0.0013318	0.00394949
12.8648	12.7214	-0.000342624	0.00306041
12.8652	12.7219	-0.000258799	0.0022046
12.8657	12.7224	0.000506909	0.00291808
12.8662	12.7228	9.71153e-05	0.00403078
12.8667	12.7233	-0.00136835	0.00389967
12.8671	12.7238	-0.000556626	0.00307967
12.8676	12.7242	-7.36724e-05	0.00227793
12.8681	12.7247	0.00042815	0.00287481
12.8686	12.7252	1.47535e-05	0.0039649
12.869	12.7257	-0.00137061	0.00396506
12.8695	12.7261	-0.000379703	0.00306508
12.87	12.7266	-8.64778e-05	0.00218747
12.8704	12.7271	0.000338458	0.00284104
12.8709	12.7276	5.90376e-05	0.00413911
12.8714	12.728	-0.00142736	0.00384846
12.8719	12.7285	-0.000485803	0.00295282
12.8723	12.729	-9.59482e-05	0.00219263
12.8728	12.7294	0.00036373	0.00298191
12.8733	12.7299	0.000128059	0.004136
12.8737	12.7304	-0.00147598	0.00382527
12.8742	12.7309	-0.000344425	0.00296715
12.8747	12.7313	6.3104e-05	0.00219337
12.8752	12.7318	0.000461698	0.00304328
12.8756	12.7323	0.000107584	0.00423129
12.8761	12.7327	-0.00147925	0.0037253
12.8766	12.7332	-0.00030048	0.0029919
12.8771	12.7337	-4.60638e-05	0.00230998
12.8775	12.7342	0.000264835	0.00291733
12.878	12.7346	0.00014593	0.00416091
12.8785	12.7351	-0.00145731	0.00380159
12.8789	12.7356	-0.000478401	0.00298191
12.8794	12.7361	0.000100914	0.00229318
12.8799	12.7366	0.000149532	0.00295888
12.8804	12.737	1.34872e-05	0.00418131
12.8808	12.7375	-0.00157768	0.00378291
12.8813	12.738	-0.000319884	0.00300387
12.8818	12.7385	0.000142327	0.00232947
12.8822	12.7389	0.000189144	0.00302755
12.8827	12.7394	9.96479e-05	0.00429652
12.8832	12.7399	-0.0015368	0.00377356
12.8837	12.7403	-0.00034776	0.00289382
12.8841	12.7408	0.000194013	0.00233849
12.8846	12.7413	0.000199613	0.00315145
12.8851	12.7418	0.000145127	0.00420106
12.8856	12.7422	-0.00148825	0.00371473
12.886	12.7427	-0.000394042	0.00289988
12.8865	12.7432	0.000355062	0.0023058
12.887	12.7436	0.000152065	0.00296806
12.8874	12.7441	0.000221621	0.00422458
12.8879	12.7446	-0.00142763	0.00374243
12.8884	12.745	-0.000406847	0.0027705
12.8889	12.7455	0.000250496	0.00230424
12.8893	12.746	5.97689e-05	0.00311473
12.8898	12.7465	0.000114451	0.00432733
12.8903	12.747	-0.00138649	0.00372858
12.8907	12.7474	-0.000278471	0.00280851
12.8912	12.7479	0.00039981	0.00240028
12.8917	12.7484	0.000164068	0.00307672
12.8922	12.7488	0.000121853	0.00430586
12.8926	12.7493	-0.00136448	0.00371301
12.8931	12.7498	-0.000481201	0.00273968
12.8936	12.7502	0.000480103	0.00237102
12.8941	12.7507	7.10405e-05	0.0030473
12.8945	12.7512	8.30435e-05	0.00426801
12.895	12.7517	-0.00137142	0.00361418
12.8955	12.7521	-0.000375636	0.00281286
12.8959	12.7526	0.000439422	0.00238036
12.8964	12.753	0.00012879	0.00305369
12.8969	12.7535	0.000138724	0.00437576
12.8974	12.754	-0.00131513	0.00370882
12.8978	12.7544	-0.000410379	0.00269035
12.8983	12.7549	0.000512777	0.00238176
12.8988	12.7554	1.5021e-05	0.00308606
