# 1304     AichiSR QXAFS
# Start     : 8.9544
# End       : 9.0544
# Dir       : Forward
# Points    : 300
# ScanTime  : 1.01549
# Date      : 13.04.23 23:25
# Ring Cur. : 1[mA]
12.7557	12.7562	-0.000774426	0.00356822
12.7562	12.7557	-0.000542286	0.00231358
12.7566	12.7553	0.00101847	0.00264659
12.7571	12.7548	-0.000109485	0.00345038
12.7576	12.7543	-0.000558427	0.00427129
12.7581	12.7538	-0.000755753	0.00351781
12.7585	12.7534	-0.000605172	0.00213953
12.759	12.7529	0.000992128	0.00269625
12.7595	12.7524	-5.73355e-05	0.00354191
12.7599	12.752	-0.00066986	0.00418926
12.7604	12.7515	-0.000679063	0.00340211
12.7609	12.751	-0.000609774	0.00230391
12.7614	12.7506	0.00100133	0.00280926
12.7618	12.7501	-8.62104e-05	0.00342842
12.7623	12.7496	-0.000726878	0.00416574
12.7628	12.7492	-0.000621045	0.00352183
12.7632	12.7487	-0.000581166	0.00214125
12.7637	12.7482	0.00107476	0.00268831
12.7642	12.7478	-0.00017057	0.0036386
12.7647	12.7473	-0.000773695	0.00414083
12.7651	12.7468	-0.000644053	0.00346938
12.7656	12.7463	-0.000549955	0.00226392
12.7661	12.7459	0.00109623	0.0026402
12.7666	12.7454	-0.000174636	0.00364032
12.767	12.7449	-0.000749885	0.00417927
12.7675	12.7444	-0.000439789	0.00335074
12.768	12.744	-0.000594703	0.00222451
12.7684	12.7435	0.000983924	0.00277222
12.7689	12.743	-6.86072e-05	0.00365556
12.7694	12.7426	-0.000810774	0.00409429
12.7699	12.7421	-0.000533618	0.00333082
12.7703	12.7416	-0.000557357	0.00212659
12.7708	12.7412	0.000871492	0.00275353
12.7713	12.7407	-0.000113016	0.00374586
12.7717	12.7402	-0.000748886	0.0040915
12.7722	12.7397	-0.000569895	0.00331665
12.7727	12.7393	-0.00057323	0.00221115
12.7732	12.7388	0.000912102	0.00287218
12.7736	12.7383	-7.34049e-05	0.00380159
12.7741	12.7379	-0.000881525	0.00415919
12.7746	12.7374	-0.000479668	0.00336459
12.7751	12.7369	-0.000366433	0.00225254
12.7755	12.7364	0.000853621	0.00271461
12.776	12.7359	2.36888e-05	0.00379397
12.7765	12.7355	-0.00103111	0.00404586
12.7769	12.735	-0.000541287	0.00325609
12.7774	12.7345	-0.000345959	0.00208906
12.7779	12.734	0.000921305	0.00280196
12.7784	12.7335	5.33662e-05	0.00389672
12.7788	12.7331	-0.00117762	0.0040071
12.7793	12.7326	-0.000464597	0.00327026
12.7798	12.7321	-0.00033162	0.00220009
12.7802	12.7317	0.000674094	0.00300452
12.7807	12.7312	-3.65935e-05	0.00391557
12.7812	12.7307	-0.00108839	0.00404087
12.7817	12.7302	-0.000453058	0.00328706
12.7821	12.7298	-0.000319617	0.00218296
12.7826	12.7293	0.000650552	0.00290971
12.7831	12.7288	3.77606e-05	0.00392442
12.7836	12.7284	-0.00116608	0.00401365
12.784	12.7279	-0.000373567	0.00310523
12.7845	12.7274	-0.000200247	0.0022359
12.785	12.727	0.000675628	0.00290423
12.7854	12.7265	0.000104517	0.00398219
12.7859	12.726	-0.00116915	0.00398047
12.7864	12.7255	-0.000345424	0.0031317
12.7869	12.7251	-1.51202e-05	0.00224524
12.7873	12.7246	0.000524316	0.00282622
12.7878	12.7241	0.000172004	0.00401488
12.7883	12.7236	-0.0013164	0.00377995
12.7887	12.7232	-0.000393239	0.00321889
12.7892	12.7227	-1.38539e-05	0.00215945
12.7897	12.7222	0.000525315	0.00300763
12.7902	12.7218	2.34925e-05	0.00410781
12.7906	12.7213	-0.00136501	0.0038673
12.7911	12.7208	-0.00041885	0.00305074
12.7916	12.7204	6.84367e-05	0.00227949
12.7921	12.7199	0.000561859	0.00284351
12.7925	12.7194	0.000119855	0.00413911
12.793	12.719	-0.00137575	0.00379847
12.7935	12.7185	-0.000309147	0.00292946
12.7939	12.718	0.000106051	0.00232931
12.7944	12.7176	0.000388539	0.00291668
12.7949	12.7171	0.000179673	0.00410846
12.7954	12.7166	-0.00138395	0.00381421
12.7958	12.7161	-0.000408845	0.00294782
12.7963	12.7157	0.000202948	0.00221147
12.7968	12.7152	0.000380067	0.00282687
12.7972	12.7147	0.000249694	0.00414271
12.7977	12.7142	-0.00129852	0.00378167
12.7982	12.7137	-0.000290207	0.002962
12.7987	12.7133	0.000144663	0.00223262
12.7991	12.7128	0.000311313	0.00297429
12.7996	12.7123	0.000248962	0.00424326
12.8001	12.7119	-0.0014417	0.00378291
12.8006	12.7114	-0.000323754	0.00292324
12.801	12.7109	0.000231288	0.00226048
12.8015	12.7105	0.000341526	0.00299969
12.802	12.71	0.000274769	0.00421245
12.8024	12.7095	-0.00142763	0.00372841
12.8029	12.7091	-0.000366701	0.0029883
12.8034	12.7086	0.000332055	0.00233849
12.8039	12.7081	0.000248962	0.00301133
12.8043	12.7076	0.000213685	0.00418115
12.8048	12.7072	-0.00135681	0.00366023
12.8053	12.7067	-0.000221185	0.00273222
12.8057	12.7062	0.00036373	0.00232727
12.8062	12.7057	0.000266833	0.00301542
12.8067	12.7052	0.000271434	0.00421508
12.8072	12.7048	-0.00144757	0.0037158
12.8076	12.7043	-0.000206846	0.00276009
12.8081	12.7038	0.000486702	0.00230096
12.8086	12.7033	0.000101717	0.00304247
12.8091	12.7029	6.13027e-05	0.00437077
12.8095	12.7024	-0.00135041	0.00362754
12.81	12.7019	-0.000419582	0.00275058
12.8105	12.7015	0.000353796	0.00241929
12.8109	12.701	0.000153866	0.00322339
12.8114	12.7005	0.000110117	0.00426989
12.8119	12.7	-0.00135608	0.00370603
12.8124	12.6996	-0.000251862	0.00272412
12.8128	12.6991	0.000586935	0.0024115
12.8133	12.6987	3.64943e-05	0.00317652
12.8138	12.6982	4.2897e-05	0.00427505
12.8142	12.6977	-0.00128246	0.00372858
12.8147	12.6972	-0.00040831	0.00269158
12.8152	12.6968	0.000638549	0.00231562
12.8157	12.6963	0.000164335	0.00321577
12.8161	12.6958	3.42292e-05	0.00427489
12.8166	12.6953	-0.00136041	0.00372562
12.8171	12.6949	-0.000371035	0.00271944
12.8176	12.6944	0.000699634	0.00227981
12.818	12.6939	6.69029e-05	0.0031113
12.8185	12.6934	-0.000193577	0.00438945
12.819	12.693	-0.00114794	0.00354937
12.8194	12.6925	-0.000359228	0.00258088
12.8199	12.6921	0.0007986	0.0023226
12.8204	12.6916	-6.06706e-05	0.00326543
12.8209	12.6911	-6.93385e-05	0.00426678
12.8213	12.6906	-0.0011178	0.00369621
12.8218	12.6902	-0.00038557	0.00255737
12.8223	12.6897	0.000727243	0.0025018
12.8227	12.6892	-6.55395e-05	0.00333238
12.8232	12.6888	-5.24666e-05	0.00433995
12.8237	12.6883	-0.00111754	0.00359296
12.8242	12.6878	-0.000456393	0.00249885
12.8246	12.6874	0.000857955	0.00260751
12.8251	12.6869	-6.72697e-05	0.00330263
12.8256	12.6864	-0.000168768	0.00431627
12.8261	12.6859	-0.000976889	0.00357493
12.8265	12.6854	-0.000378436	0.00256301
12.827	12.685	0.000795069	0.00272895
12.8275	12.6845	-2.73907e-05	0.00333238
12.8279	12.684	-0.000265202	0.00430087
12.8284	12.6835	-0.000817177	0.00356993
12.8289	12.6831	-0.00041498	0.00242428
12.8294	12.6826	0.000945382	0.00256875
12.8298	12.6821	4.16307e-05	0.00346423
12.8303	12.6817	-0.000322684	0.00419269
12.8308	12.6812	-0.000997363	0.00357042
12.8312	12.6807	-0.000539486	0.00238536
12.8317	12.6802	0.000966588	0.00265545
12.8322	12.6798	4.90322e-05	0.00346283
12.8327	12.6793	-0.000452059	0.00430087
12.8331	12.6788	-0.000863655	0.00358116
12.8336	12.6784	-0.000482735	0.0023212
12.8341	12.6779	0.00104561	0.00267585
12.8346	12.6774	-0.000144495	0.00355625
12.835	12.6769	-0.00046433	0.00426275
12.8355	12.6764	-0.000875658	0.00356591
12.836	12.676	-0.000456661	0.00238053
12.8364	12.6755	0.00100673	0.00287014
12.8369	12.675	-0.000120953	0.00361729
12.8374	12.6745	-0.000562226	0.00432733
12.8379	12.6741	-0.000668593	0.00358362
12.8383	12.6736	-0.000585768	0.00219542
12.8388	12.6731	0.000990861	0.00272116
12.8393	12.6726	3.26953e-05	0.00352371
12.8397	12.6722	-0.000625379	0.00423548
12.8402	12.6717	-0.000648921	0.00355952
12.8407	12.6713	-0.000705405	0.00218033
12.8412	12.6708	0.00101107	0.00271198
12.8416	12.6703	-6.80722e-05	0.00363377
12.8421	12.6698	-0.000671394	0.00420032
12.8426	12.6694	-0.000637382	0.00347234
12.8431	12.6689	-0.00066426	0.00218559
12.8435	12.6684	0.00102687	0.00268487
12.844	12.668	-8.06101e-05	0.00359812
12.8445	12.6675	-0.000762958	0.004131
12.8449	12.667	-0.00063485	0.00347078
12.8454	12.6666	-0.000568896	0.00216879
12.8459	12.6661	0.000989328	0.00272707
12.8464	12.6656	-2.76582e-05	0.00375086
12.8468	12.6651	-0.000774159	0.00419795
12.8473	12.6646	-0.000514143	0.00338048
12.8478	12.6642	-0.000707741	0.00212085
12.8482	12.6637	0.000990326	0.0027895
12.8487	12.6632	-8.21439e-05	0.00361713
12.8492	12.6628	-0.000976158	0.00401333
12.8497	12.6623	-0.000620047	0.00335074
12.8501	12.6619	-0.000591903	0.00224196
12.8506	12.6614	0.000921573	0.00286874
12.8511	12.6609	-2.66593e-05	0.00365712
12.8516	12.6604	-0.000904336	0.00411109
12.852	12.6599	-0.00051161	0.003335
12.8525	12.6595	-0.000525949	0.00216756
12.853	12.659	0.000853086	0.00278312
12.8534	12.6586	-0.000126357	0.00383445
12.8539	12.6581	-0.00106332	0.00415001
12.8544	12.6576	-0.000439057	0.00323848
12.8549	12.6571	-0.0004738	0.00216895
12.8553	12.6567	0.000839014	0.00289849
12.8558	12.6562	-0.000103082	0.00380937
12.8563	12.6557	-0.00102704	0.00409412
12.8567	12.6552	-0.000502942	0.00323257
12.8572	12.6547	-0.000510076	0.00217239
12.8577	12.6543	0.000852819	0.00286547
12.8582	12.6538	-5.34654e-05	0.00383428
12.8586	12.6533	-0.000998897	0.00408757
12.8591	12.6529	-0.000484269	0.00319553
12.8596	12.6524	-0.00031168	0.00223885
12.8601	12.6519	0.000793	0.00281704
12.8605	12.6515	3.54955e-05	0.00382822
12.861	12.651	-0.0012341	0.00406766
12.8615	12.6505	-0.000368698	0.00321889
12.8619	12.65	-0.000332618	0.00228088
12.8624	12.6495	0.000644685	0.00306164
12.8629	12.6491	5.26348e-05	0.00395089
12.8634	12.6486	-0.00114821	0.00390918
12.8638	12.6481	-0.000307079	0.00308467
12.8643	12.6477	-0.000220187	0.00218763
12.8648	12.6472	0.000682299	0.00280712
12.8652	12.6467	0.000121389	0.00403668
12.8657	12.6462	-0.00117482	0.0040552
12.8662	12.6458	-0.000331887	0.00310024
12.8667	12.6453	-8.90105e-05	0.00226794
12.8671	12.6448	0.000597137	0.00293553
12.8676	12.6443	0.000150531	0.00409429
12.8681	12.6438	-0.00129465	0.00393752
12.8686	12.6434	-0.000298678	0.00315022
12.869	12.6429	-4.8864e-05	0.00209234
12.8695	12.6424	0.00064522	0.00298846
12.87	12.642	7.30382e-05	0.00407544
12.8704	12.6415	-0.00136014	0.00390107
12.8709	12.6411	-0.000311948	0.0030319
12.8714	12.6406	4.92997e-05	0.00216535
12.8719	12.6401	0.000421016	0.00292635
12.8723	12.6396	0.00019428	0.00414894
12.8728	12.6392	-0.00141076	0.00382822
12.8733	12.6387	-0.000338557	0.00304296
12.8737	12.6382	5.0031e-05	0.00222827
12.8742	12.6378	0.000480835	0.00293258
12.8747	12.6373	0.000185809	0.00411608
12.8752	12.6368	-0.00148799	0.00389812
12.8756	12.6364	-0.000467397	0.00309933
12.8761	12.6359	0.000154597	0.00233087
12.8766	12.6354	0.000387005	0.00293553
12.8771	12.6349	0.000236424	0.00414067
12.8775	12.6344	-0.00144684	0.00376922
12.878	12.634	-0.000368966	0.00285989
12.8785	12.6335	0.000130324	0.00226515
12.8789	12.633	0.000379871	0.00310196
12.8794	12.6326	0.000268099	0.00424047
12.8799	12.6321	-0.00139416	0.0038578
12.8804	12.6316	-0.000258532	0.00282719
12.8808	12.6312	0.00016767	0.00226966
12.8813	12.6307	0.000242292	0.00310024
12.8818	12.6302	0.000284775	0.00416123
12.8822	12.6297	-0.00143783	0.00368359
12.8827	12.6293	-0.000341625	0.00294503
12.8832	12.6288	0.000374467	0.00222811
12.8837	12.6283	0.000259431	0.00303018
12.8841	12.6279	0.000247696	0.00431676
12.8846	12.6274	-0.00149899	0.00373808
12.8851	12.6269	-0.000274869	0.00285645
12.8856	12.6264	0.00034866	0.00223278
12.886	12.626	0.000291641	0.00303254
12.8865	12.6255	0.000206016	0.00422039
12.887	12.625	-0.00143503	0.00362024
12.8874	12.6245	-0.000275671	0.00277812
12.8879	12.624	0.000468029	0.00228851
12.8884	12.6236	0.00021315	0.00316751
12.8889	12.6231	8.89112e-05	0.00436159
12.8893	12.6226	-0.00132667	0.00363704
12.8898	12.6222	-0.00036663	0.00280368
12.8903	12.6217	0.000514578	0.00232276
12.8907	12.6212	0.000213952	0.00319209
12.8912	12.6207	0.000121389	0.00418802
12.8917	12.6203	-0.00121823	0.00365835
12.8922	12.6198	-0.000322417	0.00273222
12.8926	12.6193	0.000451157	0.00225286
12.8931	12.6189	9.55815e-05	0.00301026
12.8936	12.6184	4.20945e-05	0.00428095
12.8941	12.6179	-0.0013136	0.00367736
12.8945	12.6174	-0.000331423	0.00254244
12.895	12.617	0.00061968	0.00228121
12.8955	12.6165	1.98899e-05	0.00316096
12.8959	12.616	-1.7189e-05	0.00427284
12.8964	12.6155	-0.00126198	0.00369572
12.8969	12.6151	-0.000464062	0.00264192
12.8974	12.6146	0.000785064	0.00237897
12.8978	12.6141	-6.44695e-05	0.00318447
12.8983	12.6136	-8.72092e-05	0.00432299
12.8988	12.6132	-0.00112314	0.00353912
