# 1304     AichiSR QXAFS
# Start     : 8.9544
# End       : 9.0544
# Dir       : Forward
# Points    : 300
# ScanTime  : 1.01549
# Date      : 13.04.23 23:12
# Ring Cur. : 0.9[mA]
12.7557	12.7562	-0.00111087	0.00369948
12.7562	12.7557	-0.000454592	0.00255629
12.7566	12.7552	0.000827011	0.00259661
12.7571	12.7547	-0.000129692	0.00343513
12.7576	12.7542	-0.000373567	0.00432127
12.7581	12.7538	-0.00102144	0.00360607
12.7585	12.7533	-0.000474335	0.00248484
12.759	12.7528	0.000819539	0.00263038
12.7595	12.7524	-9.18106e-05	0.00339793
12.7599	12.7519	-0.000389173	0.00420654
12.7604	12.7515	-0.000927343	0.0036182
12.7609	12.751	-0.000577564	0.00240232
12.7614	12.7505	0.000836946	0.00253745
12.7618	12.75	-0.000161367	0.00331541
12.7623	12.7496	-0.000410914	0.00431987
12.7628	12.7491	-0.00106692	0.00352495
12.7632	12.7487	-0.000549955	0.0024115
12.7637	12.7482	0.000936911	0.00256285
12.7642	12.7477	-0.000165701	0.00346595
12.7647	12.7472	-0.000381504	0.00420917
12.7651	12.7468	-0.000972555	0.0036758
12.7656	12.7463	-0.00048607	0.00238208
12.7661	12.7458	0.000934645	0.0026343
12.7666	12.7453	-6.80722e-05	0.00349864
12.767	12.7449	-0.000520545	0.00432922
12.7675	12.7444	-0.000944215	0.00353305
12.768	12.7439	-0.000608775	0.00236201
12.7684	12.7434	0.000969388	0.00270822
12.7689	12.743	-9.82133e-05	0.00354798
12.7694	12.7425	-0.000492741	0.00431037
12.7699	12.742	-0.000997631	0.0037194
12.7703	12.7416	-0.000644053	0.00243781
12.7708	12.7411	0.00102027	0.00267585
12.7713	12.7406	-6.68058e-05	0.00351142
12.7717	12.7401	-0.000547423	0.0042095
12.7722	12.7397	-0.000796702	0.00355281
12.7727	12.7392	-0.000654058	0.00226515
12.7732	12.7387	0.00098626	0.00273222
12.7736	12.7383	-9.05443e-05	0.00363065
12.7741	12.7378	-0.000589103	0.00432438
12.7746	12.7373	-0.000765491	0.00352683
12.7751	12.7369	-0.000616177	0.0022622
12.7755	12.7364	0.000994928	0.00275509
12.776	12.7359	-3.22596e-05	0.00355657
12.7765	12.7354	-0.000693134	0.00422818
12.7769	12.7349	-0.000793099	0.0035097
12.7774	12.7344	-0.000613376	0.00227589
12.7779	12.734	0.00108649	0.0028644
12.7784	12.7335	-7.18711e-05	0.0036073
12.7788	12.733	-0.000731747	0.00427751
12.7793	12.7326	-0.00067373	0.00362819
12.7798	12.7321	-0.00062051	0.00223729
12.7802	12.7316	0.000946916	0.00277238
12.7807	12.7311	-0.000158834	0.00360886
12.7812	12.7307	-0.000757091	0.00423129
12.7817	12.7302	-0.000640254	0.00348414
12.7821	12.7297	-0.000765491	0.00222795
12.7826	12.7293	0.000914171	0.0027895
12.7831	12.7288	2.04249e-05	0.00368096
12.7836	12.7283	-0.000679598	0.00414583
12.784	12.7279	-0.000640182	0.00342047
12.7845	12.7274	-0.000646318	0.00212896
12.785	12.7269	0.000958651	0.00285318
12.7854	12.7264	-0.00011562	0.00366662
12.7859	12.726	-0.000783897	0.00423596
12.7864	12.7255	-0.000529017	0.00347808
12.7869	12.725	-0.00055329	0.00214093
12.7873	12.7245	0.000814741	0.00269453
12.7878	12.724	-0.000140429	0.00370211
12.7883	12.7236	-0.00084705	0.00413042
12.7887	12.7231	-0.000564027	0.00348479
12.7892	12.7227	-0.000652257	0.00212896
12.7897	12.7222	0.00101207	0.00280803
12.7902	12.7217	-7.29411e-05	0.00369604
12.7906	12.7213	-0.00091147	0.00413476
12.7911	12.7208	-0.000638916	0.00344726
12.7916	12.7203	-0.000539754	0.00222656
12.7921	12.7198	0.00103074	0.00287218
12.7925	12.7194	-0.00016497	0.00381544
12.793	12.7189	-0.000889997	0.00409396
12.7935	12.7185	-0.000486338	0.00338622
12.7939	12.718	-0.000551757	0.00224089
12.7944	12.7175	0.000867354	0.00288775
12.7949	12.717	1.93549e-05	0.00389361
12.7954	12.7166	-0.00096922	0.00420155
12.7958	12.7161	-0.000541287	0.00333377
12.7963	12.7156	-0.000532352	0.00226204
12.7968	12.7151	0.000832344	0.00296044
12.7972	12.7146	-0.000109217	0.00385345
12.7977	12.7142	-0.000951617	0.00411281
12.7982	12.7137	-0.000472801	0.00328846
12.7987	12.7132	-0.000572231	0.00205111
12.7991	12.7128	0.000816007	0.00279058
12.7996	12.7123	-6.75372e-05	0.00375504
12.8001	12.7118	-0.00106412	0.00405708
12.8006	12.7114	-0.00043772	0.00329641
12.801	12.7109	-0.000475601	0.00230612
12.8015	12.7104	0.000768459	0.00281565
12.802	12.7099	-6.60034e-05	0.0038841
12.8024	12.7095	-0.00111673	0.00413042
12.8029	12.709	-0.00044439	0.00332132
12.8034	12.7085	-0.00033269	0.00215354
12.8039	12.7081	0.000604806	0.00278532
12.8043	12.7076	4.06319e-05	0.00385345
12.8048	12.7071	-0.00120676	0.00405692
12.8053	12.7066	-0.0004738	0.00317948
12.8057	12.7061	-0.000386105	0.00222
12.8062	12.7057	0.000700169	0.00287948
12.8067	12.7052	-7.98616e-06	0.00387042
12.8072	12.7047	-0.00132207	0.00406487
12.8076	12.7042	-0.00041498	0.00328239
12.8081	12.7037	-0.000283073	0.00221705
12.8086	12.7033	0.000700704	0.00275697
12.8091	12.7028	1.5556e-05	0.004018
12.8095	12.7023	-0.00124564	0.00400587
12.81	12.7019	-0.000416514	0.00320815
12.8105	12.7014	-0.000171836	0.00226032
12.8109	12.7009	0.000635285	0.00282671
12.8114	12.7004	3.0359e-05	0.00394622
12.8119	12.7	-0.0012147	0.00421245
12.8124	12.6995	-0.000424718	0.00320659
12.8128	12.6991	-0.000222255	0.00215617
12.8133	12.6986	0.000573666	0.00292619
12.8138	12.6981	4.59646e-05	0.00408446
12.8142	12.6977	-0.00133173	0.00391229
12.8147	12.6972	-0.000416514	0.00318012
12.8152	12.6967	-0.000174636	0.00225163
12.8157	12.6962	0.00054192	0.00290595
12.8161	12.6958	5.36337e-05	0.00416869
12.8166	12.6953	-0.00137215	0.00401333
12.8171	12.6948	-0.000342427	0.0030618
12.8176	12.6943	-0.000196912	0.00227621
12.818	12.6938	0.00064522	0.00292807
12.8185	12.6934	0.000100914	0.00406094
12.819	12.6929	-0.00142537	0.0038265
12.8194	12.6925	-0.000438986	0.00304623
12.8199	12.692	-7.70075e-05	0.00215977
12.8204	12.6915	0.000452959	0.00292184
12.8209	12.6911	0.00013439	0.00418598
12.8213	12.6906	-0.00136862	0.00386107
12.8218	12.6901	-0.000358229	0.00299469
12.8223	12.6896	-0.000134561	0.00231605
12.8227	12.6892	0.000457828	0.00286719
12.8232	12.6887	-1.84553e-05	0.00408773
12.8237	12.6883	-0.0014187	0.0038528
12.8242	12.6878	-0.00029768	0.00305509
12.8246	12.6873	-0.00010335	0.00227138
12.8251	12.6868	0.000334855	0.00291078
12.8256	12.6863	0.000186611	0.00423253
12.8261	12.6859	-0.00146164	0.00394031
12.8265	12.6854	-0.000385838	0.00312982
12.827	12.6849	-2.23254e-05	0.00219821
12.8275	12.6844	0.000226686	0.00296683
12.8279	12.6839	-1.92578e-05	0.00421352
12.8284	12.6835	-0.00151199	0.00391369
12.8289	12.683	-0.000416782	0.00302476
12.8294	12.6825	1.73573e-05	0.00224384
12.8298	12.6821	0.00022929	0.00298224
12.8303	12.6816	0.000124189	0.00417648
12.8308	12.6811	-0.00150639	0.00385796
12.8312	12.6806	-0.000349294	0.00304607
12.8317	12.6802	0.000148997	0.00228974
12.8322	12.6797	0.000229558	0.00305214
12.8327	12.6792	0.000130592	0.00430726
12.8331	12.6788	-0.00159562	0.00383273
12.8336	12.6783	-0.000296075	0.00295266
12.8341	12.6778	0.000193745	0.00241429
12.8346	12.6774	0.000208548	0.00292914
12.835	12.6769	0.000121389	0.00426399
12.8355	12.6764	-0.00154754	0.00388255
12.836	12.6759	-0.000377438	0.00300559
12.8364	12.6754	0.000158468	0.002279
12.8369	12.6749	0.000262232	0.00294331
12.8374	12.6745	0.000308246	0.00432078
12.8379	12.674	-0.00148412	0.00381871
12.8383	12.6735	-0.000501408	0.00284743
12.8388	12.673	0.000164068	0.00243625
12.8393	12.6726	9.32452e-05	0.00316735
12.8397	12.6721	0.000168134	0.00428546
12.8402	12.6717	-0.00152353	0.00366802
12.8407	12.6712	-0.000341357	0.00288324
12.8412	12.6707	0.000345325	0.00241306
12.8416	12.6702	0.000121853	0.00311973
12.8421	12.6698	0.000153331	0.00427939
12.8426	12.6693	-0.00156161	0.00372128
12.8431	12.6689	-0.000433653	0.00288292
12.8435	12.6684	0.000427151	0.00230129
12.844	12.6679	6.23015e-05	0.00319725
12.8445	12.6674	0.000160001	0.00440207
12.8449	12.667	-0.0014445	0.00377201
12.8454	12.6665	-0.000380969	0.00281302
12.8459	12.666	0.000442757	0.00233178
12.8464	12.6655	7.84421e-05	0.00318882
12.8468	12.6651	0.000117322	0.00436159
12.8473	12.6646	-0.00147698	0.00377545
12.8478	12.6641	-0.000426252	0.00276459
12.8482	12.6636	0.000385739	0.00241102
12.8487	12.6632	0.000188341	0.00324535
12.8492	12.6627	9.07125e-05	0.00429013
12.8497	12.6623	-0.00137522	0.00375537
12.8501	12.6618	-0.00040831	0.00278312
12.8506	12.6613	0.000456026	0.00240995
12.8511	12.6608	0.000117055	0.00314882
12.8516	12.6604	7.81746e-05	0.00435971
12.852	12.6599	-0.00134968	0.00369153
12.8525	12.6594	-0.000430853	0.00271322
12.853	12.659	0.000493373	0.0024755
12.8534	12.6585	-8.71746e-06	0.00316219
12.8539	12.658	-8.28752e-05	0.00435692
12.8544	12.6576	-0.00128499	0.00365057
12.8549	12.6571	-0.000476868	0.00263849
12.8553	12.6566	0.000502576	0.00237242
12.8558	12.6561	-4.8864e-05	0.00311237
12.8563	12.6556	4.00969e-05	0.00427644
12.8567	12.6552	-0.0013338	0.00361074
12.8572	12.6547	-0.000429783	0.00258711
12.8577	12.6542	0.000494104	0.00241338
12.8582	12.6537	-0.000126892	0.00324299
12.8586	12.6533	-0.000100282	0.00436798
12.8591	12.6528	-0.00130826	0.00360419
12.8596	12.6523	-0.00041498	0.00253777
12.8601	12.6519	0.000572596	0.00250835
12.8605	12.6514	-0.000146029	0.00329018
12.861	12.6509	-0.000267467	0.00429308
12.8615	12.6504	-0.00118196	0.00366818
12.8619	12.65	-0.000466595	0.0026198
12.8624	12.6495	0.000546521	0.00251689
12.8629	12.649	-0.000115353	0.00327584
12.8634	12.6486	-0.000268733	0.00423613
12.8638	12.6481	-0.0012093	0.00353789
12.8643	12.6476	-0.000511343	0.00253622
12.8648	12.6471	0.000603004	0.00252827
12.8652	12.6466	-1.87228e-05	0.00321733
12.8657	12.6462	-0.00023219	0.00433807
12.8662	12.6457	-0.00110553	0.0036327
12.8667	12.6452	-0.000510344	0.00260923
12.8671	12.6447	0.000795533	0.00252655
12.8676	12.6443	-5.09328e-05	0.0033232
12.8681	12.6438	-0.000182305	0.00438478
12.8686	12.6433	-0.00111627	0.00354707
12.869	12.6429	-0.000448991	0.00243936
12.8695	12.6424	0.00074185	0.00259554
12.87	12.6419	-6.98735e-05	0.00325593
12.8704	12.6415	-0.000394577	0.0042839
12.8709	12.641	-0.00108172	0.00359157
12.8714	12.6405	-0.000634118	0.00240248
12.8719	12.64	0.000788131	0.00267913
12.8723	12.6396	-9.51457e-05	0.00350315
12.8728	12.6391	-0.000378169	0.00423859
12.8733	12.6387	-0.00110266	0.00359812
12.8737	12.6382	-0.000629249	0.00240823
12.8742	12.6377	0.000769191	0.00260783
12.8747	12.6372	-0.000204581	0.00333173
12.8752	12.6368	-0.000404244	0.00429201
12.8756	12.6363	-0.00104925	0.00357182
12.8761	12.6358	-0.000591368	0.00246755
12.8766	12.6353	0.00085742	0.00270527
12.8771	12.6349	-0.000106685	0.00340179
12.8775	12.6344	-0.000451524	0.00428202
12.878	12.6339	-0.000998166	0.00349987
12.8785	12.6334	-0.00057323	0.00245665
12.8789	12.633	0.000896764	0.00257605
12.8794	12.6325	-0.000197911	0.00355936
12.8799	12.632	-0.000515944	0.00428686
12.8804	12.6316	-0.000906601	0.00351421
12.8808	12.6311	-0.000777494	0.00238069
12.8813	12.6306	0.000926709	0.00266184
12.8818	12.6301	-0.00014503	0.0034398
12.8822	12.6297	-0.000600571	0.00438666
12.8827	12.6292	-0.000865456	0.00367441
12.8832	12.6288	-0.000601373	0.00239733
12.8837	12.6283	0.000961184	0.00263193
12.8841	12.6278	-0.000254465	0.0035374
12.8846	12.6273	-0.000636651	0.00419237
12.8851	12.6268	-0.000910204	0.00347357
12.8856	12.6264	-0.000665258	0.00241929
12.886	12.6259	0.00102921	0.00282687
12.8865	12.6254	-5.12003e-05	0.00360762
12.887	12.6249	-0.000541287	0.00422163
12.8874	12.6244	-0.000775425	0.00358878
12.8879	12.624	-0.000702605	0.0022767
12.8884	12.6235	0.000915972	0.00269486
12.8889	12.623	-0.00013836	0.00369637
12.8893	12.6226	-0.000675531	0.00416697
12.8898	12.6221	-0.000813574	0.00359935
12.8903	12.6216	-0.000683664	0.0022309
12.8907	12.6212	0.0010024	0.00274591
12.8912	12.6207	-0.000118688	0.00359452
12.8917	12.6202	-0.000717943	0.00429357
12.8922	12.6197	-0.00077596	0.00358304
12.8926	12.6193	-0.000725077	0.00238192
12.8931	12.6188	0.00098066	0.00280491
12.8936	12.6183	-0.000140161	0.00361648
12.8941	12.6179	-0.000738417	0.0042526
12.8945	12.6174	-0.000830446	0.00339417
12.895	12.6169	-0.00080537	0.00221459
12.8955	12.6164	0.000998798	0.00277861
12.8959	12.616	-0.000114354	0.00364638
12.8964	12.6155	-0.00075042	0.00431971
12.8969	12.615	-0.000692867	0.00337237
12.8974	12.6145	-0.000695203	0.00224384
12.8978	12.6141	0.000846683	0.00277893
12.8983	12.6136	-1.35864e-05	0.0036204
12.8988	12.6131	-0.000828912	0.00424015
