# 1304     AichiSR QXAFS
# Start     : 8.9544
# End       : 9.0544
# Dir       : Backward
# Points    : 300
# ScanTime  : 1.01549
# Date      : 13.04.24 00:35
# Ring Cur. : 1[mA]
12.7557	12.6124	-0.000522614	0.00427391
12.7562	12.6128	-0.000909205	0.0035374
12.7566	12.6133	-0.00057603	0.00230531
12.7571	12.6137	0.000887561	0.00262759
12.7576	12.6142	-0.000172104	0.00342407
12.7581	12.6147	-0.000660657	0.0041142
12.7585	12.6152	-0.000950083	0.00347733
12.759	12.6157	-0.00061771	0.00225098
12.7595	12.6161	0.000899832	0.0026715
12.7599	12.6166	-0.000104616	0.00346283
12.7604	12.6171	-0.000648386	0.00407437
12.7609	12.6176	-0.000790567	0.00329157
12.7614	12.618	-0.000692136	0.00210045
12.7618	12.6185	0.00108569	0.00255425
12.7623	12.619	-0.000228854	0.00350659
12.7628	12.6194	-0.00069927	0.00410535
12.7632	12.6199	-0.000807902	0.00337613
12.7637	12.6204	-0.000696202	0.00214141
12.7642	12.6208	0.000870957	0.00262931
12.7647	12.6213	-3.71285e-05	0.00353117
12.7651	12.6218	-0.000794366	0.00405896
12.7656	12.6223	-0.000738881	0.00352446
12.7661	12.6227	-0.000756021	0.00218575
12.7666	12.6232	0.000961452	0.00258899
12.767	12.6237	-0.000207381	0.00355764
12.7675	12.6241	-0.000725077	0.00413509
12.768	12.6246	-0.000758821	0.00328985
12.7684	12.6251	-0.000731212	0.00217394
12.7689	12.6256	0.000884226	0.0026992
12.7694	12.6261	-0.000173637	0.00354969
12.7699	12.6265	-0.000874659	0.00408199
12.7703	12.627	-0.000565293	0.00335573
12.7708	12.6275	-0.000724346	0.00211881
12.7713	12.628	0.000855886	0.00274919
12.7717	12.6284	-0.000111286	0.0035388
12.7722	12.6289	-0.000830446	0.00407217
12.7727	12.6294	-0.000527751	0.00341908
12.7732	12.6298	-0.000667862	0.00209422
12.7736	12.6303	0.000869958	0.0027414
12.7741	12.6308	-2.76582e-05	0.00364467
12.7746	12.6313	-0.000990693	0.00401537
12.7751	12.6317	-0.000533618	0.00334606
12.7755	12.6322	-0.000616177	0.0021238
12.776	12.6327	0.00094738	0.00266061
12.7765	12.6331	-5.27341e-05	0.00372407
12.7769	12.6336	-0.00102371	0.00404554
12.7774	12.6341	-0.000441055	0.0032279
12.7779	12.6345	-0.000373835	0.00221442
12.7784	12.635	0.00074572	0.00281098
12.7788	12.6355	-0.000136826	0.00374136
12.7793	12.636	-0.00110807	0.00403619
12.7798	12.6364	-0.000461262	0.00312842
12.7802	12.6369	-0.000570697	0.00205111
12.7807	12.6374	0.000718111	0.00277893
12.7812	12.6379	4.38958e-05	0.00373685
12.7817	12.6383	-0.00120423	0.00400866
12.7821	12.6388	-0.000474335	0.00315317
12.7826	12.6393	-0.000333421	0.00213905
12.7831	12.6397	0.000653887	0.00275493
12.7836	12.6402	-3.17246e-05	0.00381871
12.784	12.6407	-0.00121723	0.00394499
12.7845	12.6411	-0.000460459	0.00315645
12.785	12.6416	-0.000376903	0.00222033
12.7854	12.6421	0.000674362	0.00270404
12.7859	12.6425	-8.36777e-05	0.00383273
12.7864	12.643	-0.00129879	0.00386623
12.7869	12.6435	-0.000497075	0.00312424
12.7873	12.6439	-0.000256998	0.00212224
12.7878	12.6444	0.000599669	0.00289226
12.7883	12.6449	-6.50045e-05	0.0039059
12.7887	12.6454	-0.00132974	0.00390279
12.7892	12.6458	-0.000312215	0.00315784
12.7897	12.6463	-0.000310146	0.00207897
12.7902	12.6468	0.000509246	0.00289865
12.7906	12.6473	5.23673e-05	0.00388099
12.7911	12.6478	-0.00127065	0.00388099
12.7916	12.6482	-0.000423916	0.00302116
12.7921	12.6487	-0.000241392	0.00206013
12.7925	12.6492	0.000377802	0.00286096
12.793	12.6496	4.44308e-05	0.00400055
12.7935	12.6501	-0.00147058	0.00381421
12.7939	12.6506	-0.000413714	0.00306738
12.7944	12.6511	-0.000140429	0.00206652
12.7949	12.6515	0.000388539	0.00282778
12.7954	12.652	6.13027e-05	0.00412322
12.7958	12.6525	-0.00143557	0.00384706
12.7963	12.6529	-0.000321418	0.00288931
12.7968	12.6534	-8.4409e-05	0.00223573
12.7972	12.6539	0.000400542	0.00287465
12.7977	12.6544	-4.96665e-05	0.003895
12.7982	12.6548	-0.00145631	0.0036146
12.7987	12.6553	-0.00041218	0.00288834
12.7991	12.6558	5.36337e-05	0.00215027
12.7996	12.6563	0.000414078	0.00290627
12.8001	12.6568	0.000116787	0.00404758
12.8006	12.6572	-0.00157848	0.00378774
12.801	12.6577	-0.000296877	0.00290316
12.8015	12.6582	6.35311e-06	0.00223278
12.802	12.6586	0.000254562	0.00290144
12.8024	12.6591	0.000128523	0.00405783
12.8029	12.6596	-0.00138749	0.00375209
12.8034	12.66	-0.000459461	0.00288947
12.8039	12.6605	0.000114986	0.00213158
12.8043	12.661	0.000202681	0.00302862
12.8048	12.6615	0.000288574	0.00426538
12.8053	12.6619	-0.00149259	0.0037784
12.8057	12.6624	-0.000384572	0.00285661
12.8062	12.6629	0.000175803	0.00228465
12.8067	12.6633	0.00028037	0.0029606
12.8072	12.6638	0.000146928	0.00409896
12.8076	12.6643	-0.00151126	0.00363098
12.8081	12.6647	-0.000421115	0.00289226
12.8086	12.6652	0.000166868	0.0022767
12.8091	12.6657	8.51123e-05	0.00293913
12.8095	12.6662	0.000282439	0.00421696
12.81	12.6666	-0.00151279	0.00362319
12.8105	12.6671	-0.000468931	0.00282703
12.8109	12.6676	0.00032205	0.00220771
12.8114	12.6681	7.41082e-05	0.00296109
12.8119	12.6685	6.51016e-05	0.00413944
12.8124	12.669	-0.00144657	0.00363065
12.8128	12.6695	-0.000390439	0.00266683
12.8133	12.6699	0.000394139	0.0022549
12.8138	12.6704	9.4779e-05	0.0029715
12.8142	12.6709	4.52333e-05	0.00417025
12.8147	12.6713	-0.00140669	0.00350986
12.8152	12.6718	-0.000405777	0.00259022
12.8157	12.6723	0.000405411	0.00230751
12.8161	12.6727	9.43152e-05	0.0030028
12.8166	12.6732	7.5107e-05	0.00416837
12.8171	12.6737	-0.00143277	0.0037012
12.8176	12.6741	-0.000417513	0.0027042
12.818	12.6746	0.00046036	0.00237757
12.8185	12.6751	0.000148997	0.00312875
12.819	12.6756	0.000110652	0.00433995
12.8194	12.6761	-0.00129086	0.00368203
12.8199	12.6765	-0.000387372	0.00271198
12.8204	12.677	0.00048137	0.00232244
12.8209	12.6775	1.40222e-05	0.00312531
12.8213	12.678	-0.00013556	0.00428546
12.8218	12.6785	-0.00126885	0.00354707
12.8223	12.6789	-0.000458462	0.00256826
12.8227	12.6794	0.000474967	0.00233103
12.8232	12.6798	-5.58017e-05	0.00321438
12.8237	12.6803	-0.000103082	0.00424203
12.8242	12.6808	-0.00113187	0.00372128
12.8246	12.6813	-0.000505475	0.00249402
12.8251	12.6818	0.000698368	0.0024079
12.8256	12.6822	-4.35312e-05	0.00315038
12.8261	12.6827	-0.000155232	0.004273
12.8265	12.6831	-0.00118069	0.00355936
12.827	12.6836	-0.00044159	0.00245821
12.8275	12.6841	0.000643953	0.00242068
12.8279	12.6846	-0.000146296	0.0032402
12.8284	12.685	-0.000222987	0.00430119
12.8289	12.6855	-0.00116508	0.00349037
12.8294	12.686	-0.000477866	0.00237881
12.8298	12.6865	0.000708106	0.00245805
12.8303	12.687	8.88573e-06	0.00322495
12.8308	12.6874	-0.00017724	0.00422614
12.8312	12.6879	-0.0011106	0.00346595
12.8317	12.6884	-0.000542554	0.00236308
12.8322	12.6889	0.000748716	0.00261153
12.8327	12.6893	-0.00014223	0.0031485
12.8331	12.6898	-0.00039604	0.00425153
12.8336	12.6902	-0.000983559	0.00352355
12.8341	12.6907	-0.000604174	0.00246149
12.8346	12.6912	0.000747985	0.00250287
12.835	12.6917	-0.000104616	0.00328846
12.8355	12.6921	-0.000458462	0.0042263
12.836	12.6926	-0.000997363	0.00358148
12.8364	12.6931	-0.000467397	0.00242675
12.8369	12.6935	0.000803469	0.00246444
12.8374	12.694	-0.000150898	0.0033182
12.8379	12.6945	-0.000457927	0.00419548
12.8383	12.6949	-0.000939346	0.00348758
12.8388	12.6954	-0.000530818	0.00224991
12.8393	12.6959	0.000852819	0.00252687
12.8397	12.6964	-7.674e-05	0.00332148
12.8402	12.6968	-0.000562761	0.00409273
12.8407	12.6973	-0.000867525	0.00351265
12.8412	12.6978	-0.000783897	0.00216272
12.8416	12.6983	0.000965054	0.00259194
12.8421	12.6987	-7.44749e-05	0.00335492
12.8426	12.6992	-0.000441322	0.00410454
12.8431	12.6996	-0.000820708	0.00334934
12.8435	12.7001	-0.000623846	0.00221598
12.844	12.7006	0.000990594	0.00254819
12.8445	12.7011	-8.80117e-05	0.00348184
12.8449	12.7016	-0.000713876	0.00408978
12.8454	12.702	-0.00074655	0.00347808
12.8459	12.7025	-0.000702337	0.00217985
12.8464	12.7029	0.00092571	0.00259989
12.8468	12.7034	-0.000142961	0.00343637
12.8473	12.7039	-0.000763422	0.00412247
12.8478	12.7044	-0.000779028	0.00346718
12.8482	12.7048	-0.000658124	0.00209003
12.8487	12.7053	0.000961987	0.0026838
12.8492	12.7058	-7.80063e-05	0.00348135
12.8497	12.7063	-0.000713074	0.00413755
12.8501	12.7068	-0.000677796	0.00341505
12.8506	12.7073	-0.00073815	0.00224991
12.8511	12.7077	0.000960453	0.00259317
12.8516	12.7082	-0.000175706	0.00349258
12.852	12.7087	-0.000844981	0.00409273
12.8525	12.7091	-0.000578099	0.00331058
12.853	12.7096	-0.000634582	0.00222827
12.8534	12.7101	0.000989328	0.0026511
12.8539	12.7105	-4.60638e-05	0.00353477
12.8544	12.711	-0.000836314	0.00420745
12.8549	12.7115	-0.000561494	0.00331853
12.8553	12.712	-0.000553825	0.002161
12.8558	12.7124	0.000983727	0.00273813
12.8563	12.7129	-7.03373e-05	0.00365524
12.8567	12.7134	-0.000920673	0.00410346
12.8572	12.7138	-0.000616444	0.0033677
12.8577	12.7143	-0.000552755	0.00210791
12.8582	12.7148	0.000871492	0.00270248
12.8586	12.7153	-0.000125287	0.00367892
12.8591	12.7157	-0.000929341	0.00405708
12.8596	12.7162	-0.000600107	0.00326215
12.8601	12.7167	-0.000555092	0.0021587
12.8605	12.7172	0.000762592	0.00281769
12.861	12.7177	-8.24114e-05	0.00370367
12.8615	12.7181	-0.0010155	0.00408806
12.8619	12.7186	-0.000588033	0.00335868
12.8624	12.7191	-0.00053822	0.00218001
12.8629	12.7195	0.000736981	0.00275509
12.8634	12.72	-9.25246e-06	0.0037566
12.8638	12.7204	-0.00106592	0.00396179
12.8643	12.7209	-0.000562761	0.00311769
12.8648	12.7214	-0.000445924	0.00219526
12.8652	12.7219	0.000690699	0.00286268
12.8657	12.7223	-8.06101e-05	0.00384985
12.8662	12.7228	-0.00114488	0.0039263
12.8667	12.7233	-0.000478401	0.00316718
12.8671	12.7237	-0.000465328	0.0021238
12.8676	12.7242	0.000630417	0.00277361
12.8681	12.7247	6.15702e-05	0.00392319
12.8686	12.7251	-0.00117762	0.00397784
12.869	12.7256	-0.000456928	0.00316751
12.8695	12.7261	-0.00034496	0.00221984
12.87	12.7266	0.000617611	0.00273018
12.8704	12.727	-2.51255e-05	0.00383289
12.8709	12.7275	-0.00123157	0.00393655
12.8714	12.728	-0.000401711	0.00308918
12.8719	12.7285	-0.000297608	0.00217018
12.8723	12.7289	0.000537318	0.00283621
12.8728	12.7294	4.2897e-05	0.00382838
12.8733	12.7299	-0.00121037	0.00386575
12.8737	12.7303	-0.000378436	0.00304639
12.8742	12.7308	-0.000193844	0.00219386
12.8747	12.7313	0.000537586	0.00276927
12.8752	12.7318	7.43757e-05	0.00400415
12.8756	12.7322	-0.00142736	0.00389189
12.8761	12.7327	-0.000239324	0.00313137
12.8766	12.7332	-0.000130958	0.00218484
12.8771	12.7336	0.000460895	0.00292512
12.8775	12.7341	3.26953e-05	0.00390155
12.878	12.7346	-0.00133867	0.00390901
12.8785	12.7351	-0.000434652	0.00303378
12.8789	12.7356	-0.000143496	0.00215445
12.8794	12.736	0.00041868	0.00282998
12.8799	12.7365	6.03039e-05	0.00410642
12.8804	12.737	-0.00136681	0.00378151
12.8808	12.7375	-0.000325484	0.00290423
12.8813	12.738	-0.00010895	0.00210651
12.8818	12.7384	0.000394941	0.00284104
12.8822	12.7389	0.000170203	0.00404725
12.8827	12.7394	-0.00144631	0.00377577
12.8832	12.7398	-0.000463063	0.00295233
12.8837	12.7403	9.57778e-05	0.00224105
12.8841	12.7408	0.000269437	0.002879
12.8846	12.7413	6.13027e-05	0.00407421
12.8851	12.7417	-0.0014205	0.00376283
12.8856	12.7422	-0.000421115	0.00285006
12.886	12.7427	5.40975e-05	0.00211027
12.8865	12.7431	0.000298044	0.00291094
12.887	12.7436	0.000119587	0.0040924
12.8874	12.7441	-0.00158948	0.00374291
12.8879	12.7445	-0.000311216	0.00283916
12.8884	12.745	0.000121121	0.00220255
12.8889	12.7455	0.000273236	0.00284711
12.8893	12.746	9.81141e-05	0.00414239
12.8898	12.7464	-0.0015146	0.00373947
12.8903	12.7469	-0.000333688	0.0028535
12.8907	12.7474	0.00011759	0.00216863
12.8912	12.7479	0.000291374	0.00288587
12.8917	12.7483	0.000176338	0.00419049
12.8922	12.7488	-0.00147852	0.00370834
12.8926	12.7493	-0.000389637	0.0028222
12.8931	12.7497	0.000317984	0.00223402
12.8936	12.7502	0.00014873	0.00303796
12.8941	12.7507	-1.38539e-05	0.00427456
12.8945	12.7511	-0.00148745	0.00365385
12.895	12.7516	-0.000414713	0.00273067
12.8955	12.7521	0.000279906	0.00223573
12.8959	12.7525	0.000194209	0.0030691
12.8964	12.753	0.00021315	0.00430259
12.8969	12.7535	-0.00148925	0.00366367
12.8974	12.7539	-0.000372034	0.00272846
12.8978	12.7544	0.000400809	0.00233538
12.8983	12.7549	9.07125e-05	0.00297011
12.8988	12.7554	0.00011372	0.0043166
