# 1304     AichiSR QXAFS
# Start     : 8.9544
# End       : 9.0544
# Dir       : Backward
# Points    : 300
# ScanTime  : 1.01549
# Date      : 13.04.24 00:07
# Ring Cur. : 1[mA]
12.7557	12.6124	-0.000489138	0.00419033
12.7562	12.6128	-0.000793831	0.00334778
12.7566	12.6133	-0.000575834	0.00209561
12.7571	12.6138	0.00103181	0.00267897
12.7576	12.6142	2.18875e-05	0.00341752
12.7581	12.6147	-0.00050881	0.00416091
12.7585	12.6152	-0.000618709	0.00341801
12.759	12.6157	-0.000599572	0.00212241
12.7595	12.6161	0.000975256	0.00264364
12.7599	12.6166	-2.94595e-05	0.0034485
12.7604	12.6171	-0.000616444	0.00406454
12.7609	12.6176	-0.00064432	0.0033663
12.7614	12.618	-0.000653523	0.00222795
12.7618	12.6185	0.000971457	0.00265749
12.7623	12.619	-6.34707e-05	0.00351904
12.7628	12.6194	-0.00068773	0.00410346
12.7632	12.6199	-0.000606974	0.00329796
12.7637	12.6204	-0.000588835	0.00216691
12.7642	12.6209	0.000897299	0.00265062
12.7647	12.6213	-4.85965e-05	0.00353568
12.7651	12.6218	-0.000854184	0.00414394
12.7656	12.6223	-0.000572962	0.0034099
12.7661	12.6228	-0.000514143	0.00212568
12.7666	12.6232	0.00098906	0.00266216
12.767	12.6237	-2.35917e-05	0.00345398
12.7675	12.6242	-0.000825577	0.00406266
12.768	12.6246	-0.000499875	0.00326092
12.7684	12.6251	-0.000579633	0.00194057
12.7689	12.6256	0.000967854	0.00268675
12.7694	12.6261	3.018e-06	0.00357837
12.7699	12.6266	-0.00086699	0.00403856
12.7703	12.627	-0.000605172	0.00325297
12.7708	12.6275	-0.000519814	0.00209889
12.7713	12.628	0.000982729	0.00279401
12.7717	12.6285	7.35192e-06	0.00358255
12.7722	12.6289	-0.000885859	0.00404167
12.7727	12.6294	-0.000564295	0.00316096
12.7732	12.6299	-0.000471731	0.00211634
12.7736	12.6303	0.000859221	0.00272272
12.7741	12.6308	2.34925e-05	0.00372267
12.7746	12.6313	-0.000955487	0.00402144
12.7751	12.6318	-0.000471999	0.00328567
12.7755	12.6322	-0.000366897	0.00214141
12.776	12.6327	0.00083081	0.00274452
12.7765	12.6331	-4.38354e-06	0.00368391
12.7769	12.6336	-0.0010145	0.00395261
12.7774	12.6341	-0.000396575	0.00339105
12.7779	12.6346	-0.000347493	0.00204177
12.7784	12.635	0.000863823	0.00267725
12.7788	12.6355	5.5435e-05	0.00376422
12.7793	12.636	-0.0011068	0.00395884
12.7798	12.6365	-0.000293809	0.00320439
12.7802	12.6369	-0.000330621	0.00225474
12.7807	12.6374	0.000758989	0.00280507
12.7812	12.6379	4.92997e-05	0.00381281
12.7817	12.6384	-0.00112314	0.00393285
12.7821	12.6388	-0.000387104	0.0031412
12.7826	12.6393	-0.000231387	0.0020466
12.7831	12.6397	0.000717309	0.00286359
12.7836	12.6402	2.34213e-05	0.00378881
12.784	12.6407	-0.00117636	0.00389156
12.7845	12.6412	-0.000278739	0.00309729
12.785	12.6416	-0.000262134	0.00210823
12.7854	12.6421	0.000706839	0.00283031
12.7859	12.6426	3.34267e-05	0.00384846
12.7864	12.643	-0.0012341	0.00387616
12.7869	12.6435	-0.00032115	0.00310556
12.7873	12.6439	-0.000198446	0.00211323
12.7878	12.6444	0.000584331	0.00272084
12.7883	12.6449	9.60453e-05	0.00391959
12.7887	12.6454	-0.00132793	0.00382838
12.7892	12.6459	-0.000261867	0.00304575
12.7897	12.6463	-9.05443e-05	0.00197122
12.7902	12.6468	0.000609675	0.00285178
12.7906	12.6473	6.77054e-05	0.00393049
12.7911	12.6478	-0.00127498	0.00379101
12.7916	12.6483	-0.000352094	0.00303952
12.7921	12.6487	-7.77388e-05	0.00215134
12.7925	12.6492	0.000522783	0.00289161
12.793	12.6497	0.000118589	0.00398219
12.7935	12.6501	-0.00134174	0.00390074
12.7939	12.6506	-0.000433653	0.00309589
12.7944	12.6511	4.77659e-05	0.00215338
12.7949	12.6516	0.000514578	0.00284662
12.7954	12.652	5.41687e-05	0.00395728
12.7958	12.6525	-0.00135347	0.00383305
12.7963	12.653	-0.000282805	0.00301837
12.7968	12.6534	-8.71746e-06	0.00224196
12.7972	12.6539	0.000471364	0.00284572
12.7977	12.6544	0.000155132	0.00399948
12.7982	12.6549	-0.00139902	0.00370399
12.7987	12.6553	-0.000356161	0.00290751
12.7991	12.6558	-1.30514e-05	0.00213142
12.7996	12.6563	0.000398473	0.00275992
12.8001	12.6568	0.00022649	0.00407077
12.8006	12.6572	-0.00132027	0.0037289
12.801	12.6577	-0.000339824	0.00287153
12.8015	12.6582	0.000114718	0.00208692
12.802	12.6587	0.000355062	0.002898
12.8024	12.6591	0.000157665	0.0040647
12.8029	12.6596	-0.00140309	0.00366925
12.8034	12.6601	-0.000226054	0.00297708
12.8039	12.6605	0.000159466	0.00221099
12.8043	12.661	0.000227756	0.00280942
12.8048	12.6615	0.000188341	0.00408945
12.8053	12.662	-0.00140796	0.00374586
12.8057	12.6624	-0.000286408	0.00288587
12.8062	12.6629	0.000174537	0.00217239
12.8067	12.6633	0.000317716	0.00293832
12.8072	12.6638	0.000282439	0.00414271
12.8076	12.6643	-0.00137802	0.00364934
12.8081	12.6648	-0.000364632	0.002839
12.8086	12.6652	0.000259431	0.00217083
12.8091	12.6657	0.000253564	0.00302599
12.8095	12.6662	0.000232554	0.00413804
12.81	12.6667	-0.00145217	0.00356435
12.8105	12.6671	-0.000250863	0.00281253
12.8109	12.6676	0.000330254	0.00230145
12.8114	12.6681	0.00021035	0.00301649
12.8119	12.6686	0.000241561	0.00416451
12.8124	12.669	-0.00146111	0.00359673
12.8128	12.6695	-0.000306882	0.00265094
12.8133	12.6699	0.000253296	0.00227031
12.8138	12.6704	0.000168402	0.00294954
12.8142	12.6709	0.000150531	0.00418115
12.8147	12.6714	-0.0014325	0.00369153
12.8152	12.6718	-0.000354163	0.00271322
12.8157	12.6723	0.000346858	0.0022622
12.8161	12.6727	0.000164335	0.00296323
12.8166	12.6732	0.000100379	0.00411887
12.8171	12.6737	-0.00130926	0.00366335
12.8176	12.6742	-0.000359496	0.00262275
12.818	12.6746	0.000400809	0.00216879
12.8185	12.6751	0.000112917	0.00308343
12.819	12.6756	0.000259431	0.00409101
12.8194	12.6761	-0.00134941	0.00344259
12.8199	12.6766	-0.000345959	0.0027741
12.8204	12.677	0.00046703	0.0022359
12.8209	12.6775	0.000153866	0.00301976
12.8213	12.678	0.000167938	0.00404865
12.8218	12.6785	-0.00126225	0.00350954
12.8223	12.6789	-0.000410646	0.00257514
12.8227	12.6794	0.000509977	0.00228137
12.8232	12.6799	-7.45116e-06	0.00301853
12.8237	12.6803	0.000124724	0.00413444
12.8242	12.6808	-0.00127985	0.0034893
12.8246	12.6813	-0.00032222	0.00260037
12.8251	12.6818	0.000503574	0.00232759
12.8256	12.6822	2.57576e-05	0.00303549
12.8261	12.6827	-4.78652e-05	0.00418459
12.8265	12.6832	-0.00123897	0.00361025
12.827	12.6836	-0.000366701	0.00247984
12.8275	12.6841	0.000743651	0.00230252
12.8279	12.6846	9.27102e-05	0.00300608
12.8284	12.6851	0.0001582	0.00419548
12.8289	12.6855	-0.00126378	0.00352511
12.8294	12.686	-0.00035056	0.00254384
12.8298	12.6865	0.000692768	0.00240962
12.8303	12.687	6.59041e-05	0.0031966
12.8308	12.6875	5.72363e-05	0.00416263
12.8312	12.6879	-0.0011078	0.00360435
12.8317	12.6884	-0.000413179	0.00244404
12.8322	12.6889	0.000673096	0.00240404
12.8327	12.6893	-1.97216e-05	0.00308204
12.8331	12.6898	-0.000159833	0.00424359
12.8336	12.6903	-0.0010191	0.00336459
12.8341	12.6907	-0.000477866	0.00247534
12.8346	12.6912	0.000732112	0.0024056
12.835	12.6917	4.84972e-05	0.00323274
12.8355	12.6922	-0.000166236	0.00417803
12.836	12.6926	-0.00103471	0.00355608
12.8364	12.6931	-0.000377634	0.00246755
12.8369	12.6935	0.000797869	0.00260628
12.8374	12.694	-6.45235e-06	0.0032483
12.8379	12.6945	-0.000170837	0.00418926
12.8383	12.695	-0.00102804	0.00358288
12.8388	12.6954	-0.00054382	0.0022513
12.8393	12.6959	0.000857153	0.00244452
12.8397	12.6964	-4.11604e-06	0.00331042
12.8402	12.6969	-0.000356696	0.00419516
12.8407	12.6973	-0.00096362	0.00351856
12.8412	12.6978	-0.00039991	0.00231358
12.8416	12.6983	0.000870689	0.00255597
12.8421	12.6988	3.72968e-05	0.00334156
12.8426	12.6992	-0.000321685	0.00416435
12.8431	12.6997	-0.000968221	0.00339728
12.8435	12.7001	-0.000555556	0.0021923
12.844	12.7006	0.00085742	0.00250475
12.8445	12.7011	-5.83343e-05	0.00321733
12.8449	12.7016	-0.000407044	0.00413616
12.8454	12.702	-0.00094088	0.00349177
12.8459	12.7025	-0.000540752	0.00224647
12.8464	12.703	0.000946916	0.00250229
12.8468	12.7034	5.82351e-05	0.00338466
12.8473	12.7039	-0.000503674	0.00420622
12.8478	12.7044	-0.000762423	0.00347545
12.8482	12.7049	-0.000526681	0.00221582
12.8487	12.7054	0.00098626	0.00259801
12.8492	12.7058	-3.09933e-05	0.00326339
12.8497	12.7063	-0.000630248	0.00411748
12.8501	12.7068	-0.000872857	0.00342498
12.8506	12.7073	-0.000590369	0.00213454
12.8511	12.7078	0.000962985	0.00268068
12.8516	12.7082	3.21603e-05	0.00332239
12.852	12.7087	-0.000526217	0.00413009
12.8525	12.7092	-0.00082044	0.00349053
12.853	12.7096	-0.000510344	0.00212815
12.8534	12.7101	0.00107856	0.00260005
12.8539	12.7106	-0.000196377	0.00343744
12.8544	12.711	-0.000608775	0.00412231
12.8549	12.7115	-0.00068493	0.00343186
12.8553	12.712	-0.000586035	0.00227729
12.8558	12.7125	0.0010062	0.00261841
12.8563	12.7129	-6.22044e-05	0.00343481
12.8567	12.7134	-0.000679063	0.00417787
12.8572	12.7139	-0.000671929	0.00347308
12.8577	12.7143	-0.000508007	0.00210388
12.8582	12.7148	0.000995998	0.00268831
12.8586	12.7153	-0.000116155	0.00341956
12.8591	12.7158	-0.000757554	0.0039853
12.8596	12.7163	-0.000705137	0.00335541
12.8601	12.7167	-0.000727146	0.00214125
12.8605	12.7172	0.000950715	0.00259178
12.861	12.7177	-8.21439e-05	0.00345644
12.8615	12.7182	-0.000722812	0.00405569
12.8619	12.7186	-0.000568896	0.00336056
12.8624	12.7191	-0.000544088	0.00213035
12.8629	12.7195	0.000973454	0.00261202
12.8634	12.72	-5.19316e-05	0.00354314
12.8638	12.7205	-0.000761888	0.00420933
12.8643	12.7209	-0.000474531	0.00330763
12.8648	12.7214	-0.000660924	0.00206013
12.8652	12.7219	0.000933575	0.00268691
12.8657	12.7224	-2.35917e-05	0.00355453
12.8662	12.7228	-0.0009969	0.00395932
12.8667	12.7233	-0.000508542	0.00327912
12.8671	12.7237	-0.000682398	0.00213781
12.8676	12.7242	0.000958116	0.00279106
12.8681	12.7247	0.000137191	0.00360698
12.8686	12.7252	-0.000759356	0.00406191
12.869	12.7256	-0.000522614	0.0031689
12.8695	12.7261	-0.000485803	0.00219526
12.87	12.7266	0.000917239	0.00276255
12.8704	12.7271	6.13027e-05	0.00363581
12.8709	12.7275	-0.00084145	0.00405209
12.8714	12.728	-0.000505742	0.00310384
12.8719	12.7285	-0.000513411	0.00210963
12.8723	12.729	0.000894499	0.00276041
12.8728	12.7294	5.0566e-05	0.00365696
12.8733	12.7299	-0.00101857	0.00408151
12.8737	12.7304	-0.000512145	0.00313449
12.8742	12.7308	-0.000366433	0.00200924
12.8747	12.7313	0.000910301	0.00268831
12.8752	12.7318	4.67671e-05	0.0037457
12.8756	12.7323	-0.00104058	0.00405504
12.8761	12.7327	-0.0003677	0.00320594
12.8766	12.7332	-0.000478134	0.00209299
12.8771	12.7337	0.000797869	0.00270699
12.8775	12.7341	6.95067e-05	0.00371161
12.878	12.7346	-0.00104365	0.00395867
12.8785	12.7351	-0.000361832	0.00315645
12.8789	12.7356	-0.000422649	0.00214281
12.8794	12.7361	0.000799599	0.0027895
12.8799	12.7365	6.61716e-05	0.00377249
12.8804	12.737	-0.00114975	0.00387927
12.8808	12.7375	-0.00040938	0.00317169
12.8813	12.738	-0.00034949	0.00214044
12.8818	12.7385	0.000636017	0.00278639
12.8822	12.7389	8.83762e-05	0.00377512
12.8827	12.7394	-0.00120876	0.00387337
12.8832	12.7398	-0.000422917	0.00317808
12.8837	12.7403	-0.000236791	0.0021551
12.8841	12.7408	0.000710906	0.00270264
12.8846	12.7413	4.59646e-05	0.00390467
12.8851	12.7418	-0.0012285	0.00387927
12.8856	12.7422	-0.000334687	0.00310351
12.886	12.7427	-0.000222184	0.00215118
12.8865	12.7431	0.000566728	0.00280336
12.887	12.7436	0.00019321	0.00388222
12.8874	12.7441	-0.00127605	0.00375709
12.8879	12.7446	-0.000304011	0.00304451
12.8884	12.745	-0.000207114	0.00215805
12.8889	12.7455	0.000629614	0.0028426
12.8893	12.746	0.000159734	0.00391852
12.8898	12.7465	-0.00129059	0.00376889
12.8903	12.7469	-0.000356696	0.00295233
12.8907	12.7474	-0.000196645	0.00221598
12.8912	12.7479	0.000408746	0.00286047
12.8917	12.7484	0.000144128	0.00387369
12.8922	12.7488	-0.00129979	0.00378897
12.8926	12.7493	-0.000395576	0.00292758
12.8931	12.7498	-4.60638e-05	0.00211929
12.8936	12.7502	0.000600204	0.00281844
12.8941	12.7507	8.07072e-05	0.00400415
12.8945	12.7512	-0.00140209	0.00378462
12.895	12.7516	-0.000383573	0.00293397
12.8955	12.7521	1.0152e-05	0.00196983
12.8959	12.7526	0.000371399	0.00280867
12.8964	12.753	9.86491e-05	0.0039758
12.8969	12.7535	-0.00135041	0.00375816
12.8974	12.754	-0.000352362	0.00283433
12.8978	12.7544	2.2155e-05	0.00226548
12.8983	12.7549	0.000384205	0.00282097
12.8988	12.7554	0.000101182	0.00407528
