# 1304     AichiSR QXAFS
# Start     : 8.9544
# End       : 9.0544
# Dir       : Forward
# Points    : 300
# ScanTime  : 1.01549
# Date      : 13.04.24 00:00
# Ring Cur. : 1[mA]
12.7557	12.7563	-0.000291009	0.0027909
12.7562	12.7558	0.000233357	0.0021842
12.7566	12.7553	0.000329987	0.00295405
12.7571	12.7548	0.000257898	0.0042998
12.7576	12.7544	-0.00137061	0.00364638
12.7581	12.7539	-0.000297145	0.0028812
12.7585	12.7534	0.000409745	0.00229538
12.759	12.753	0.000198347	0.00299952
12.7595	12.7525	0.0002671	0.00422039
12.7599	12.752	-0.001307	0.00381232
12.7604	12.7516	-0.000354894	0.00282188
12.7609	12.7511	0.000372469	0.00233242
12.7614	12.7506	0.000143326	0.00307458
12.7618	12.7502	0.000117786	0.00427628
12.7623	12.7497	-0.001318	0.00367597
12.7628	12.7492	-0.000258264	0.00269142
12.7632	12.7488	0.000449089	0.00227842
12.7637	12.7483	0.000196278	0.00310646
12.7642	12.7478	0.000155132	0.00430398
12.7647	12.7474	-0.00128345	0.00363253
12.7651	12.7469	-0.000332886	0.00266667
12.7656	12.7464	0.00046703	0.00235857
12.7661	12.7459	0.000210082	0.00302239
12.7666	12.7455	0.000137726	0.00431708
12.767	12.745	-0.00133487	0.00353166
12.7675	12.7445	-0.000299945	0.00273936
12.768	12.744	0.000543453	0.00238053
12.7684	12.7436	4.80334e-05	0.00313686
12.7689	12.7431	9.96479e-05	0.00426662
12.7694	12.7426	-0.00116589	0.00367843
12.7699	12.7422	-0.000330888	0.00257965
12.7703	12.7417	0.000618342	0.00238643
12.7708	12.7412	0.000120586	0.00310212
12.7713	12.7407	-7.18366e-06	0.00431864
12.7717	12.7403	-0.00117962	0.00353134
12.7722	12.7398	-0.000409647	0.00260547
12.7727	12.7393	0.000638353	0.00236324
12.7732	12.7389	2.60251e-05	0.00329984
12.7736	12.7384	-8.18764e-05	0.00432111
12.7741	12.7379	-0.00113107	0.00355732
12.7746	12.7375	-0.000506277	0.00252966
12.7751	12.737	0.000730649	0.00237865
12.7755	12.7365	3.49605e-05	0.00320799
12.776	12.736	-0.000190509	0.00424761
12.7765	12.7355	-0.00109786	0.00351126
12.7769	12.7351	-0.000450525	0.00242707
12.7774	12.7346	0.000806804	0.00249541
12.7779	12.7341	6.51016e-05	0.00326092
12.7784	12.7336	-0.000155232	0.00437232
12.7788	12.7331	-0.00101063	0.00352151
12.7793	12.7327	-0.000447725	0.00237135
12.7798	12.7322	0.000880695	0.00250803
12.7802	12.7317	-5.14678e-05	0.00329501
12.7807	12.7313	-0.000285605	0.00432283
12.7812	12.7308	-0.000889729	0.00351765
12.7817	12.7303	-0.000392704	0.00246755
12.7821	12.7298	0.000866088	0.00265217
12.7826	12.7294	-4.18723e-06	0.00340228
12.7831	12.7289	-0.000368163	0.00415033
12.7836	12.7284	-0.000855718	0.00354363
12.784	12.728	-0.000387907	0.00241166
12.7845	12.7275	0.000899564	0.00262898
12.785	12.727	-4.24612e-05	0.00345226
12.7854	12.7266	-0.000265666	0.00429276
12.7859	12.7261	-0.000855451	0.00358288
12.7864	12.7256	-0.000450525	0.00238348
12.7869	12.7251	0.000962985	0.00255737
12.7873	12.7247	0.000118321	0.00347561
12.7878	12.7242	-0.000534617	0.0042467
12.7883	12.7237	-0.000755557	0.00352323
12.7887	12.7232	-0.000518548	0.00219853
12.7892	12.7228	0.00095685	0.00256719
12.7897	12.7223	-8.41415e-05	0.00349725
12.7902	12.7219	-0.000560692	0.00422474
12.7906	12.7214	-0.000694936	0.0034253
12.7911	12.7209	-0.000618245	0.00229973
12.7916	12.7204	0.000978323	0.00264955
12.7921	12.72	1.37547e-05	0.00339277
12.7925	12.7195	-0.000533083	0.00411764
12.793	12.719	-0.000745551	0.00357976
12.7935	12.7186	-0.000604976	0.00221394
12.7939	12.7181	0.000920306	0.00274435
12.7944	12.7176	-0.000112018	0.00354879
12.7949	12.7172	-0.000536686	0.00417336
12.7954	12.7167	-0.000661727	0.00351421
12.7958	12.7162	-0.000569163	0.00220959
12.7963	12.7157	0.00101513	0.00271944
12.7968	12.7152	-0.000124556	0.00352838
12.7972	12.7148	-0.000730748	0.00410379
12.7977	12.7143	-0.000576565	0.00341613
12.7982	12.7138	-0.00064712	0.00223385
12.7987	12.7133	0.000965054	0.00272583
12.7991	12.7129	5.51675e-05	0.00361385
12.7996	12.7124	-0.000837312	0.00420466
12.8001	12.712	-0.000554557	0.00342595
12.8006	12.7115	-0.000523346	0.00213347
12.801	12.711	0.00102721	0.00274747
12.8015	12.7105	-6.45235e-06	0.00358706
12.802	12.7101	-0.000742216	0.00405741
12.8024	12.7096	-0.000507009	0.00326666
12.8029	12.7091	-0.000539486	0.00216412
12.8034	12.7087	0.000901366	0.00286375
12.8039	12.7082	-3.07258e-05	0.00350331
12.8043	12.7077	-0.000839649	0.00410674
12.8048	12.7072	-0.000473265	0.00328911
12.8053	12.7068	-0.000548956	0.00220927
12.8057	12.7063	0.000927975	0.00283106
12.8062	12.7058	-1.38539e-05	0.00375349
12.8067	12.7053	-0.000938544	0.00407421
12.8072	12.7048	-0.000386373	0.0033291
12.8076	12.7043	-0.000428053	0.00216428
12.8081	12.7039	0.000964519	0.00284588
12.8086	12.7034	4.64996e-05	0.00373464
12.8091	12.7029	-0.000899467	0.00406299
12.8095	12.7025	-0.000391706	0.00322028
12.81	12.702	-0.000386105	0.00219418
12.8105	12.7015	0.000727778	0.00293053
12.8109	12.7011	1.48419e-06	0.00386263
12.8114	12.7006	-0.0010043	0.00402922
12.8119	12.7001	-0.00029941	0.0033073
12.8124	12.6996	-0.000347029	0.00227122
12.8128	12.6992	0.000724443	0.00277115
12.8133	12.6987	3.70293e-05	0.00379585
12.8138	12.6983	-0.00108099	0.00404119
12.8142	12.6978	-0.000343426	0.00321749
12.8147	12.6973	-0.000293809	0.00215805
12.8152	12.6968	0.000742117	0.00279213
12.8157	12.6964	-3.76635e-05	0.00378462
12.8161	12.6959	-0.00124691	0.00396613
12.8166	12.6954	-0.000351095	0.00313605
12.8171	12.6949	-0.000256196	0.00208209
12.8176	12.6945	0.000677162	0.00285768
12.818	12.694	0.000164068	0.00393204
12.8185	12.6935	-0.00125178	0.00395916
12.819	12.693	-0.000246529	0.00302739
12.8194	12.6926	-0.000165968	0.00225597
12.8199	12.6921	0.000595603	0.00292979
12.8204	12.6917	0.000156934	0.00393548
12.8209	12.6912	-0.00130132	0.00381232
12.8213	12.6907	-0.000415979	0.00318087
12.8218	12.6902	1.70898e-05	0.00214978
12.8223	12.6898	0.000524049	0.00292463
12.8227	12.6893	0.000157665	0.00389688
12.8232	12.6888	-0.00139876	0.00382076
12.8237	12.6884	-0.000287674	0.00302009
12.8242	12.6879	1.83561e-05	0.00217641
12.8246	12.6874	0.000446823	0.00292136
12.8251	12.6869	0.000112186	0.00412231
12.8256	12.6865	-0.00130286	0.0038964
12.8261	12.686	-0.000346958	0.00308499
12.8265	12.6855	1.96224e-05	0.00219402
12.827	12.685	0.00053532	0.00294348
12.8275	12.6846	0.000191944	0.00410535
12.8279	12.6841	-0.00136908	0.00384583
12.8284	12.6836	-0.000332422	0.00307426
12.8289	12.6831	4.59646e-05	0.00221566
12.8294	12.6827	0.000491304	0.00294659
12.8298	12.6822	0.000344058	0.00407823
12.8303	12.6817	-0.0014361	0.00378913
12.8308	12.6813	-0.000381504	0.00305541
12.8312	12.6808	0.000202413	0.0023262
12.8317	12.6803	0.000349659	0.00301214
12.8322	12.6798	0.000176606	0.00420901
12.8327	12.6794	-0.00140489	0.0038206
12.8331	12.6789	-0.000164167	0.00288759
12.8336	12.6784	0.000218554	0.00218624
12.8341	12.678	0.000302913	0.00300994
12.8346	12.6775	0.000239492	0.00426989
12.835	12.677	-0.00135734	0.00367269
12.8355	12.6765	-0.000273602	0.00296323
12.836	12.676	0.000375466	0.00234627
12.8364	12.6756	0.000232358	0.00303517
12.8369	12.6751	0.000295244	0.00419377
12.8374	12.6746	-0.00130926	0.00380068
12.8379	12.6741	-0.000306347	0.00278451
12.8383	12.6736	0.000293175	0.00240077
12.8388	12.6732	0.000311848	0.00302272
12.8393	12.6727	0.000209351	0.00432111
12.8397	12.6723	-0.0014215	0.00367425
12.8402	12.6718	-0.000209914	0.00282875
12.8407	12.6713	0.000334588	0.00230408
12.8412	12.6709	0.000137458	0.00307361
12.8416	12.6704	0.000260965	0.00430071
12.8421	12.6699	-0.00124818	0.00369604
12.8426	12.6694	-0.000368698	0.00276943
12.8431	12.669	0.000471097	0.00239159
12.8435	12.6685	9.65803e-05	0.00307082
12.844	12.6681	5.33662e-05	0.00421991
12.8445	12.6676	-0.00133814	0.00358116
12.8449	12.6671	-0.000256998	0.00268643
12.8454	12.6666	0.000482101	0.00239126
12.8459	12.6661	0.000177141	0.00314727
12.8464	12.6657	7.87096e-05	0.00435987
12.8468	12.6652	-0.00120803	0.00370195
12.8473	12.6647	-0.00027947	0.00268224
12.8478	12.6642	0.000574664	0.00238036
12.8482	12.6638	0.000105516	0.00320127
12.8487	12.6633	1.48419e-06	0.00421524
12.8492	12.6628	-0.00112547	0.00372079
12.8497	12.6624	-0.000392508	0.0025731
12.8501	12.6619	0.000698439	0.00245091
12.8506	12.6615	-2.02566e-05	0.00325593
12.8511	12.661	-5.58017e-05	0.00430103
12.8516	12.6605	-0.00111213	0.00367597
12.852	12.66	-0.000383769	0.00255162
12.8525	12.6596	0.000662627	0.00238627
12.853	12.6591	4.36283e-05	0.00334328
12.8534	12.6586	-0.000170302	0.00422753
12.8539	12.6582	-0.00105592	0.00358722
12.8544	12.6577	-0.000372301	0.00257202
12.8549	12.6572	0.000894231	0.00252827
12.8553	12.6567	0.000100647	0.00331836
12.8558	12.6563	-0.00010335	0.00425432
12.8563	12.6558	-0.00105185	0.00368686
12.8567	12.6553	-0.000461262	0.00252065
12.8572	12.6548	0.0007958	0.00250057
12.8577	12.6543	-7.06048e-05	0.00340367
12.8582	12.6539	-0.000113819	0.0042889
12.8586	12.6534	-0.000978958	0.00355034
12.8591	12.6529	-0.000307614	0.00241494
12.8596	12.6525	0.00102767	0.00250647
12.8601	12.652	-4.91854e-06	0.00335868
12.8605	12.6515	-0.000388103	0.00436969
12.861	12.6511	-0.000944483	0.00357992
12.8615	12.6506	-0.000452594	0.00243346
12.8619	12.6501	0.000961987	0.00264455
12.8624	12.6496	-9.6947e-05	0.00339122
12.8629	12.6492	-0.00033829	0.00428874
12.8634	12.6487	-0.000891798	0.00355871
12.8638	12.6482	-0.000418779	0.00240839
12.8643	12.6477	0.000991931	0.00266135
12.8648	12.6473	-4.47975e-05	0.00331353
12.8652	12.6468	-0.000378436	0.00414706
12.8657	12.6463	-0.000817908	0.00356231
12.8662	12.6458	-0.00045279	0.00229538
12.8667	12.6453	0.00104941	0.0026897
12.8671	12.6449	-6.70022e-05	0.00354551
12.8676	12.6444	-0.000555823	0.00410068
12.8681	12.6439	-0.000851652	0.00356682
12.8686	12.6434	-0.000639184	0.00234456
12.869	12.643	0.00103354	0.0027006
12.8695	12.6425	1.62873e-05	0.0035265
12.87	12.6421	-0.000583699	0.00419393
12.8704	12.6416	-0.000748619	0.00343685
12.8709	12.6411	-0.000633583	0.00226982
12.8714	12.6406	0.00103481	0.00267553
12.8719	12.6402	1.04195e-05	0.00353584
12.8723	12.6397	-0.000693937	0.00423687
12.8728	12.6392	-0.000700072	0.00350036
12.8733	12.6388	-0.000628179	0.00218763
12.8737	12.6383	0.00112791	0.00274435
12.8742	12.6379	-2.79257e-05	0.00364139
12.8747	12.6374	-0.000595238	0.00415844
12.8752	12.6369	-0.000638916	0.00345709
12.8756	12.6364	-0.000605172	0.00227933
12.8761	12.636	0.00107882	0.00272288
12.8766	12.6355	-0.000100817	0.00356526
12.8771	12.635	-0.000811505	0.00415312
12.8775	12.6345	-0.000614375	0.00343916
12.878	12.634	-0.000558427	0.00222205
12.8785	12.6336	0.000947915	0.00278967
12.8789	12.6331	-3.6861e-05	0.00360016
12.8794	12.6326	-0.000820975	0.00415951
12.8799	12.6322	-0.000590369	0.00333844
12.8804	12.6317	-0.000519814	0.00218189
12.8808	12.6312	0.000973989	0.00278918
12.8813	12.6308	-4.75977e-05	0.00367597
12.8818	12.6303	-0.00093141	0.00409896
12.8822	12.6298	-0.000498073	0.00329174
12.8827	12.6293	-0.000407846	0.00226671
12.8832	12.6289	0.000963253	0.00273362
12.8837	12.6284	-9.84808e-05	0.00364934
12.8841	12.6279	-0.000794366	0.00412263
12.8846	12.6275	-0.000558694	0.00336802
12.8851	12.627	-0.000432387	0.00219493
12.8856	12.6265	0.000892163	0.00287358
12.886	12.626	5.0566e-05	0.00372686
12.8865	12.6255	-0.00108379	0.00412043
12.887	12.6251	-0.000319884	0.00335213
12.8874	12.6246	-0.000365167	0.00215789
12.8879	12.6241	0.000796799	0.00267446
12.8884	12.6236	-1.63865e-05	0.00383461
12.8889	12.6232	-0.00103724	0.00412043
12.8893	12.6227	-0.000342891	0.00320267
12.8898	12.6222	-0.000330353	0.00219263
12.8903	12.6218	0.000883495	0.00297445
12.8907	12.6213	8.71099e-05	0.00383912
12.8912	12.6208	-0.00114054	0.00393843
12.8917	12.6203	-0.000321418	0.00322946
12.8922	12.6199	-0.000279738	0.00206931
12.8926	12.6194	0.000692768	0.00286391
12.8931	12.6189	0.000171469	0.00392679
12.8936	12.6185	-0.00116968	0.0039431
12.8941	12.618	-0.000350828	0.00321545
12.8945	12.6175	-0.000244193	0.00229023
12.895	12.617	0.000726779	0.00284212
12.8955	12.6166	0.000157933	0.003836
12.8959	12.6161	-0.00109733	0.00395621
12.8964	12.6156	-0.000260601	0.00305697
12.8969	12.6151	-8.41415e-05	0.00213051
12.8974	12.6147	0.000682566	0.00295249
12.8978	12.6142	0.000136994	0.00395089
12.8983	12.6137	-0.00118015	0.00399185
12.8988	12.6132	-0.000352897	0.00299297
