# 1304     AichiSR QXAFS
# Start     : 8.9544
# End       : 9.0544
# Dir       : Backward
# Points    : 300
# ScanTime  : 1.01549
# Date      : 13.04.24 00:08
# Ring Cur. : 1[mA]
12.7557	12.6124	0.000339992	0.00415296
12.7562	12.6128	-0.00146831	0.00378446
12.7566	12.6133	-0.000267467	0.00293258
12.7571	12.6138	0.000218821	0.00221394
12.7576	12.6142	0.000148195	0.0028703
12.7581	12.6147	0.00022262	0.00416402
12.7585	12.6152	-0.00147031	0.0036831
12.759	12.6157	-0.000366897	0.00285162
12.7595	12.6161	0.00028704	0.00219075
12.7599	12.6166	0.000299578	0.00283933
12.7604	12.6171	0.000250229	0.00426506
12.7609	12.6176	-0.00142717	0.00355985
12.7614	12.618	-0.000242926	0.00270232
12.7618	12.6185	0.000381405	0.00222672
12.7623	12.619	0.000179673	0.00286252
12.7628	12.6194	0.000307247	0.00424482
12.7632	12.6199	-0.00141896	0.00362475
12.7637	12.6204	-0.00031168	0.00283138
12.7642	12.6209	0.00029651	0.00227949
12.7647	12.6214	0.000118054	0.00303861
12.7651	12.6218	0.000189679	0.0042095
12.7656	12.6223	-0.00136708	0.00369465
12.7661	12.6228	-0.000292008	0.00282655
12.7666	12.6232	0.000333322	0.00215182
12.767	12.6237	0.000170203	0.00296232
12.7675	12.6242	0.000223619	0.00423285
12.768	12.6246	-0.00148158	0.00356371
12.7684	12.6251	-0.000329087	0.00267708
12.7689	12.6256	0.000523781	0.00227761
12.7694	12.6261	8.81087e-05	0.00299969
12.7699	12.6266	0.000131055	0.00416107
12.7703	12.627	-0.00137322	0.00359763
12.7708	12.6275	-0.000274672	0.00262152
12.7713	12.628	0.000457828	0.00230891
12.7717	12.6285	0.00013266	0.003104
12.7722	12.6289	0.00019428	0.00411543
12.7727	12.6294	-0.00135374	0.00345865
12.7732	12.6299	-0.000384572	0.00265594
12.7736	12.6303	0.000401077	0.00234563
12.7741	12.6308	9.50465e-05	0.00304607
12.7746	12.6313	6.41028e-05	0.00415624
12.7751	12.6318	-0.00121516	0.00338392
12.7755	12.6322	-0.000301746	0.00257342
12.776	12.6327	0.000547591	0.00239405
12.7765	12.6331	-4.75977e-05	0.00306427
12.7769	12.6336	0.000182206	0.00420933
12.7774	12.6341	-0.00119016	0.00351217
12.7779	12.6346	-0.00044826	0.00259989
12.7784	12.635	0.000668762	0.00241445
12.7788	12.6355	-8.90105e-05	0.00316579
12.7793	12.636	4.95672e-05	0.00419221
12.7798	12.6365	-0.00125738	0.00363672
12.7802	12.6369	-0.000356161	0.00256735
12.7807	12.6374	0.000678428	0.00244543
12.7812	12.6379	1.5021e-05	0.00318012
12.7817	12.6384	3.11615e-05	0.00429136
12.7821	12.6388	-0.00115048	0.00358395
12.7826	12.6393	-0.000437256	0.00258416
12.7831	12.6397	0.000640618	0.00238987
12.7836	12.6402	-7.18711e-05	0.0032329
12.784	12.6407	-1.94541e-05	0.00431971
12.7845	12.6412	-0.00115535	0.0035374
12.785	12.6416	-0.000448456	0.00245542
12.7854	12.6421	0.000758258	0.00246132
12.7859	12.6426	-3.45959e-05	0.0032002
12.7864	12.643	-0.000242195	0.00413133
12.7869	12.6435	-0.00102804	0.00354486
12.7873	12.6439	-0.000442125	0.00254368
12.7878	12.6444	0.000751855	0.00237414
12.7883	12.6449	-6.93385e-05	0.00324814
12.7887	12.6454	-0.000227321	0.00411732
12.7892	12.6459	-0.00102344	0.00351872
12.7897	12.6463	-0.000506474	0.00234906
12.7902	12.6468	0.000782995	0.00239126
12.7906	12.6473	-5.96006e-05	0.00323257
12.7911	12.6478	-0.000293809	0.00423269
12.7916	12.6483	-0.000969487	0.00359034
12.7921	12.6487	-0.000544355	0.00238938
12.7925	12.6492	0.000786597	0.00240855
12.793	12.6497	-4.8864e-05	0.00310384
12.7935	12.6501	-0.00035336	0.00413288
12.7939	12.6506	-0.00100657	0.00348495
12.7944	12.6511	-0.000478669	0.00223418
12.7949	12.6516	0.000824943	0.00252811
12.7954	12.652	-1.13213e-05	0.00324707
12.7958	12.6525	-0.000289939	0.00421368
12.7963	12.653	-0.00107405	0.00346922
12.7968	12.6534	-0.000511878	0.00237258
12.7972	12.6539	0.000903702	0.00246288
12.7977	12.6544	-4.57963e-05	0.00340818
12.7982	12.6549	-0.00051548	0.00416139
12.7987	12.6553	-0.00098816	0.00342965
12.7991	12.6558	-0.000523149	0.00230145
12.7996	12.6563	0.00105428	0.0025141
12.8001	12.6568	-8.42127e-05	0.00333565
12.8006	12.6572	-0.000380773	0.00419655
12.801	12.6577	-0.000860587	0.00347561
12.8015	12.6582	-0.000574764	0.00225581
12.802	12.6587	0.000995195	0.0025177
12.8024	12.6591	-0.00015063	0.00327617
12.8029	12.6596	-0.000543553	0.00416714
12.8034	12.6601	-0.00084705	0.00356043
12.8039	12.6605	-0.000591101	0.00209143
12.8043	12.661	0.00107322	0.00262914
12.8048	12.6615	5.69688e-05	0.00340244
12.8053	12.662	-0.000455591	0.00420402
12.8057	12.6624	-0.000869058	0.00351142
12.8062	12.6629	-0.000584502	0.00215838
12.8067	12.6633	0.00106115	0.00262635
12.8072	12.6638	-9.51457e-05	0.00339449
12.8076	12.6643	-0.000643054	0.00408682
12.8081	12.6648	-0.000717943	0.00337286
12.8086	12.6652	-0.000589103	0.00212085
12.8091	12.6657	0.000975523	0.00258276
12.8095	12.6662	-8.36777e-05	0.00338236
12.81	12.6667	-0.000603906	0.00417836
12.8105	12.6671	-0.000752222	0.00340056
12.8109	12.6676	-0.000510076	0.00218763
12.8114	12.6681	0.000973722	0.00261218
12.8119	12.6686	-8.16089e-05	0.00352543
12.8124	12.669	-0.000566827	0.00417074
12.8128	12.6695	-0.000695667	0.00342047
12.8133	12.6699	-0.000548421	0.00210528
12.8138	12.6704	0.00102514	0.00280614
12.8142	12.6709	-3.65935e-05	0.0034639
12.8147	12.6714	-0.000650723	0.00399604
12.8152	12.6718	-0.00060651	0.00341269
12.8157	12.6723	-0.000614643	0.00210855
12.8161	12.6728	0.000960185	0.00271993
12.8166	12.6732	-0.000175171	0.00351389
12.8171	12.6737	-0.000734547	0.00403496
12.8176	12.6742	-0.000595238	0.00355297
12.818	12.6746	-0.000580168	0.002166
12.8185	12.6751	0.00096632	0.00273469
12.819	12.6756	-3.61297e-05	0.00349193
12.8194	12.6761	-0.000776495	0.0039976
12.8199	12.6766	-0.000509077	0.00330156
12.8204	12.677	-0.000562226	0.00225393
12.8209	12.6775	0.000995463	0.00266233
12.8213	12.678	-3.12608e-05	0.00363484
12.8218	12.6785	-0.000830178	0.00409412
12.8223	12.6789	-0.000553558	0.00323724
12.8227	12.6794	-0.000541287	0.00209766
12.8232	12.6799	0.000870957	0.00257138
12.8237	12.6803	-6.24007e-05	0.00362147
12.8242	12.6808	-0.000787232	0.00412043
12.8246	12.6813	-0.0005855	0.00324954
12.8251	12.6818	-0.000490672	0.00218001
12.8256	12.6822	0.000943313	0.00261546
12.8261	12.6827	-0.000105151	0.00366023
12.8265	12.6832	-0.00104898	0.00398112
12.827	12.6836	-0.000445924	0.00332926
12.8275	12.6841	-0.000405777	0.00211102
12.8279	12.6846	0.000875291	0.00271928
12.8284	12.6851	7.61942e-06	0.00363237
12.8289	12.6856	-0.00104084	0.00401972
12.8294	12.686	-0.000443391	0.00318308
12.8298	12.6865	-0.000511878	0.00206373
12.8303	12.687	0.000767389	0.00283122
12.8308	12.6875	-0.000111286	0.00377545
12.8312	12.6879	-0.000972555	0.00397161
12.8317	12.6884	-0.000431121	0.00311178
12.8322	12.6889	-0.000445389	0.00202293
12.8327	12.6893	0.000823141	0.00280443
12.8331	12.6898	-4.96168e-08	0.00372997
12.8336	12.6903	-0.00114668	0.00390499
12.8341	12.6907	-0.000336489	0.00309557
12.8346	12.6912	-0.000448991	0.00212708
12.835	12.6917	0.000754922	0.00266962
12.8355	12.6921	-4.96168e-08	0.00369432
12.836	12.6926	-0.00104545	0.00391868
12.8364	12.6931	-0.000300943	0.00317996
12.8369	12.6935	-0.000291277	0.00208536
12.8374	12.694	0.000714776	0.00271773
12.8379	12.6945	3.42292e-05	0.00389033
12.8383	12.695	-0.00106078	0.00376857
12.8388	12.6954	-0.000388905	0.00306008
12.8393	12.6959	-0.000279274	0.00205546
12.8397	12.6964	0.00070964	0.00281925
12.8402	12.6969	4.92997e-05	0.00389828
12.8407	12.6973	-0.00128345	0.00390746
12.8412	12.6978	-0.000339824	0.00320766
12.8416	12.6983	-0.000191579	0.0021202
12.8421	12.6988	0.000610941	0.00276492
12.8426	12.6992	0.000150995	0.00387337
12.8431	12.6997	-0.00122797	0.00388582
12.8435	12.7001	-0.000396307	0.00314727
12.844	12.7006	-0.000252129	0.00213158
12.8445	12.7011	0.000560325	0.00277582
12.8449	12.7016	0.000132857	0.00383724
12.8454	12.702	-0.0013292	0.00383616
12.8459	12.7025	-0.00028614	0.00307984
12.8464	12.703	-0.00017057	0.00220148
12.8468	12.7034	0.000506909	0.00285645
12.8473	12.7039	6.77054e-05	0.00396506
12.8478	12.7044	-0.0012211	0.00392303
12.8482	12.7049	-0.000362296	0.00301805
12.8487	12.7054	-0.000114086	0.00216551
12.8492	12.7058	0.000460895	0.002844
12.8497	12.7063	0.000144128	0.00398874
12.8501	12.7068	-0.00134381	0.0037938
12.8506	12.7073	-0.000365096	0.003099
12.8511	12.7078	-9.25246e-06	0.00220583
12.8516	12.7082	0.000523514	0.00292184
12.852	12.7087	0.000181475	0.00413944
12.8525	12.7092	-0.00136294	0.00381453
12.853	12.7096	-0.000371499	0.00304558
12.8534	12.7101	0.000132393	0.0022636
12.8539	12.7106	0.000432752	0.00288555
12.8544	12.711	0.000159734	0.00400366
12.8549	12.7115	-0.00134861	0.00368252
12.8553	12.712	-0.000330621	0.00300371
12.8558	12.7125	3.82956e-05	0.00214715
12.8563	12.7129	0.000453226	0.00278934
12.8567	12.7134	0.000235622	0.00399652
12.8572	12.7139	-0.00137802	0.0037398
12.8577	12.7143	-0.000263133	0.00296855
12.8582	12.7148	6.41028e-05	0.00220041
12.8586	12.7153	0.000404608	0.00280008
12.8591	12.7158	0.000108316	0.00410363
12.8596	12.7163	-0.00135581	0.00376438
12.8601	12.7167	-0.000424183	0.00289972
12.8605	12.7172	0.000139063	0.00215338
12.861	12.7177	0.000228488	0.0028222
12.8615	12.7182	0.000294441	0.00419688
12.8619	12.7186	-0.00142176	0.00358862
12.8624	12.7191	-0.000227856	0.00289038
12.8629	12.7195	0.000138528	0.00215027
12.8634	12.72	0.000173271	0.00295266
12.8638	12.7205	0.000157398	0.00401848
12.8643	12.7209	-0.00146698	0.00359468
12.8648	12.7214	-0.000362563	0.00277582
12.8652	12.7219	0.000145127	0.0021719
12.8657	12.7224	0.000136459	0.00288415
12.8662	12.7228	0.000334124	0.00421041
12.8667	12.7233	-0.00149619	0.00353117
12.8671	12.7237	-0.000357962	0.00277705
12.8676	12.7242	0.0001526	0.00211011
12.8681	12.7247	0.000220355	0.00286219
12.8686	12.7252	0.000144396	0.00409364
12.869	12.7256	-0.00142176	0.0035483
12.8695	12.7261	-0.00029661	0.00278639
12.87	12.7266	0.000361929	0.00222
12.8704	12.7271	0.000197544	0.00299781
12.8709	12.7275	0.000199345	0.00422318
12.8714	12.728	-0.00141256	0.00355437
12.8719	12.7285	-0.000379435	0.00272723
12.8723	12.729	0.000289376	0.00218452
12.8728	12.7294	0.000211883	0.00293225
12.8733	12.7299	0.000244628	0.00417492
12.8737	12.7304	-0.00147111	0.00357289
12.8742	12.7308	-0.00026547	0.00272272
12.8747	12.7313	0.00044249	0.00231342
12.8752	12.7318	7.48395e-05	0.00298691
12.8756	12.7323	0.000190945	0.00435896
12.8761	12.7327	-0.0014335	0.00361943
12.8766	12.7332	-0.000321685	0.00266044
12.8771	12.7337	0.000382404	0.00228572
12.8775	12.7341	0.000121924	0.00305804
12.878	12.7346	0.000127524	0.00416574
12.8785	12.7351	-0.00137295	0.00361959
12.8789	12.7356	-0.000362367	0.00271912
12.8794	12.7361	0.000462162	0.00229538
12.8799	12.7365	5.97689e-05	0.00295872
12.8804	12.737	0.000142862	0.00418394
12.8808	12.7375	-0.00124538	0.00352355
12.8813	12.738	-0.000260601	0.00262759
12.8818	12.7385	0.000451425	0.00233972
12.8822	12.7389	9.96479e-05	0.00308032
12.8827	12.7394	2.269e-05	0.00405381
12.8832	12.7398	-0.00131133	0.00363253
12.8837	12.7403	-0.000328088	0.00265749
12.8841	12.7408	0.000554992	0.00233693
12.8846	12.7413	0.000108316	0.00305729
12.8851	12.7418	-4.75977e-05	0.004155
12.8856	12.7422	-0.00119089	0.00359763
12.886	12.7427	-0.000387372	0.0025994
12.8865	12.7431	0.000540653	0.00234488
12.887	12.7436	0.000134194	0.00310244
12.8874	12.7441	-4.04636e-05	0.00419934
12.8879	12.7445	-0.00111267	0.00354986
12.8884	12.745	-0.000422917	0.0024719
12.8889	12.7455	0.000662359	0.00238552
12.8893	12.746	3.67618e-05	0.0031798
12.8898	12.7465	-7.34049e-05	0.0041972
12.8903	12.7469	-0.00113334	0.00360714
12.8907	12.7474	-0.000361297	0.00255425
12.8912	12.7479	0.000738247	0.00251565
12.8917	12.7484	8.86437e-05	0.00310507
12.8922	12.7488	-0.000150898	0.00412789
12.8926	12.7493	-0.00108326	0.00360607
12.8931	12.7498	-0.00041218	0.00235594
12.8936	12.7502	0.000732914	0.00238675
12.8941	12.7507	5.28312e-05	0.00312531
12.8945	12.7512	-0.000234722	0.00419377
12.895	12.7516	-0.00117889	0.00348323
12.8955	12.7521	-0.000415248	0.00245214
12.8959	12.7526	0.000777662	0.00235202
12.8964	12.753	-6.50045e-05	0.00331525
12.8969	12.7535	-0.000275136	0.00422302
12.8974	12.754	-0.000998362	0.00344726
12.8978	12.7544	-0.000484269	0.00237618
12.8983	12.7549	0.000729579	0.00244715
12.8988	12.7554	-8.56754e-05	0.00332239
