# 1304     AichiSR QXAFS
# Start     : 8.9544
# End       : 9.0544
# Dir       : Forward
# Points    : 300
# ScanTime  : 1.01549
# Date      : 13.04.23 23:51
# Ring Cur. : 1[mA]
12.7557	12.7563	-0.000971289	0.00359361
12.7562	12.7558	-0.000395041	0.00248108
12.7566	12.7553	0.000852551	0.00257498
12.7571	12.7548	-3.12608e-05	0.00340818
12.7576	12.7544	-0.000255464	0.00417541
12.7581	12.7539	-0.000933211	0.00361992
12.7585	12.7534	-0.000538951	0.00245526
12.759	12.753	0.000932844	0.00259489
12.7595	12.7525	3.77606e-05	0.00344678
12.7599	12.752	-0.000251862	0.00433061
12.7604	12.7516	-0.000900733	0.00351872
12.7609	12.7511	-0.000404511	0.0023743
12.7614	12.7506	0.00102307	0.00262464
12.7618	12.7502	-8.9278e-05	0.00339621
12.7623	12.7497	-0.00030608	0.00419188
12.7628	12.7492	-0.000783094	0.0035374
12.7632	12.7488	-0.000413714	0.00228835
12.7637	12.7483	0.000996265	0.00256531
12.7642	12.7478	8.88573e-06	0.00341629
12.7647	12.7474	-0.000380969	0.00413272
12.7651	12.7469	-0.000787232	0.00342407
12.7656	12.7464	-0.000470465	0.00216133
12.7661	12.7459	0.00110056	0.00266061
12.7666	12.7455	-6.18485e-06	0.00338531
12.767	12.745	-0.000537685	0.00416574
12.7675	12.7445	-0.000733281	0.00344571
12.768	12.744	-0.000556358	0.00224212
12.7684	12.7436	0.0011049	0.0025345
12.7689	12.7431	-4.60638e-05	0.00357149
12.7694	12.7426	-0.000578634	0.004313
12.7699	12.7422	-0.000736884	0.00343637
12.7703	12.7417	-0.000518013	0.00231669
12.7708	12.7412	0.00101107	0.00255785
12.7713	12.7407	-0.000151165	0.00347045
12.7717	12.7403	-0.000635385	0.00411796
12.7722	12.7398	-0.000691333	0.00351077
12.7727	12.7393	-0.000631515	0.0022949
12.7732	12.7389	0.000979126	0.00278263
12.7736	12.7384	-5.01303e-05	0.00356494
12.7741	12.7379	-0.000578099	0.00414706
12.7746	12.7375	-0.000537221	0.00352011
12.7751	12.737	-0.000579633	0.00224196
12.7755	12.7365	0.000971189	0.00266512
12.776	12.736	-0.000108486	0.00359034
12.7765	12.7355	-0.000689335	0.00417852
12.7769	12.7351	-0.000474799	0.00337908
12.7774	12.7346	-0.000607509	0.00225318
12.7779	12.7341	0.00103894	0.00272895
12.7784	12.7336	-3.0262e-05	0.00352307
12.7788	12.7331	-0.000770092	0.0041564
12.7793	12.7327	-0.000551293	0.00348742
12.7798	12.7322	-0.000477135	0.0021515
12.7802	12.7317	0.00109056	0.0027741
12.7807	12.7313	1.47535e-05	0.00362942
12.7812	12.7308	-0.000905067	0.00419844
12.7817	12.7303	-0.00056376	0.00338408
12.7821	12.7298	-0.000586767	0.00212879
12.7826	12.7294	0.000953247	0.00273764
12.7831	12.7289	-1.87228e-05	0.00358099
12.7836	12.7284	-0.000835511	0.0040683
12.784	12.728	-0.000514214	0.00343808
12.7845	12.7275	-0.000488335	0.00210667
12.785	12.727	0.000984191	0.00270871
12.7854	12.7266	-6.24007e-05	0.00371161
12.7859	12.7261	-0.00087086	0.00413788
12.7864	12.7256	-0.000438255	0.00343465
12.7869	12.7251	-0.000407579	0.00221099
12.7873	12.7246	0.000970387	0.00278016
12.7878	12.7242	1.0152e-05	0.00377963
12.7883	12.7237	-0.000955148	0.00409069
12.7887	12.7232	-0.000465061	0.00327289
12.7892	12.7228	-0.000487069	0.00223262
12.7897	12.7223	0.00106322	0.00275713
12.7902	12.7219	-7.03373e-05	0.00380298
12.7906	12.7214	-0.000752685	0.004018
12.7911	12.7209	-0.000345959	0.00341301
12.7916	12.7204	-0.00041218	0.00215306
12.7921	12.72	0.000929509	0.00275976
12.7925	12.7195	7.05055e-05	0.00387058
12.793	12.719	-0.00102777	0.00394933
12.7935	12.7186	-0.000425984	0.00325142
12.7939	12.7181	-0.000348028	0.00229457
12.7944	12.7176	0.00088016	0.00286236
12.7949	12.7172	1.5021e-05	0.00375988
12.7954	12.7167	-0.000960552	0.00409584
12.7958	12.7162	-0.000389637	0.00320487
12.7963	12.7157	-0.000278204	0.00215338
12.7968	12.7152	0.000907037	0.00275944
12.7972	12.7148	6.77054e-05	0.00377872
12.7977	12.7143	-0.00118122	0.00405381
12.7982	12.7138	-0.00040938	0.00322291
12.7987	12.7133	-0.000370767	0.00216911
12.7991	12.7129	0.000735447	0.00294659
12.7996	12.7124	9.43152e-05	0.00388131
12.8001	12.712	-0.00111547	0.00401145
12.8006	12.7115	-0.000387639	0.00323274
12.801	12.711	-0.000317084	0.00216444
12.8015	12.7105	0.000774862	0.00282064
12.802	12.7101	4.41633e-05	0.00378511
12.8024	12.7096	-0.00109066	0.0039481
12.8029	12.7091	-0.000309147	0.00314866
12.8034	12.7087	-0.000162169	0.00219321
12.8039	12.7082	0.000690235	0.00289554
12.8043	12.7077	7.59095e-05	0.00389812
12.8048	12.7072	-0.0011308	0.00395261
12.8053	12.7068	-0.000340555	0.00318603
12.8057	12.7063	-0.000203582	0.00219386
12.8062	12.7058	0.000617611	0.00279852
12.8067	12.7053	4.26295e-05	0.00395433
12.8072	12.7048	-0.00127705	0.00389066
12.8076	12.7044	-0.000336489	0.00320766
12.8081	12.7039	-0.00020945	0.00205063
12.8086	12.7034	0.000638817	0.0028558
12.8091	12.7029	0.000108119	0.00401988
12.8095	12.7025	-0.00124971	0.00401177
12.81	12.702	-0.000309879	0.00316407
12.8105	12.7015	-0.000131226	0.00211634
12.8109	12.7011	0.000624549	0.00282531
12.8114	12.7006	7.5642e-05	0.00406331
12.8119	12.7001	-0.00136114	0.00388706
12.8124	12.6996	-0.000227856	0.00314276
12.8128	12.6992	-1.53877e-05	0.00214109
12.8133	12.6987	0.000500774	0.00287621
12.8138	12.6983	1.65548e-05	0.00402144
12.8142	12.6978	-0.00129239	0.00387492
12.8147	12.6973	-0.000257533	0.00310802
12.8152	12.6968	-0.000101816	0.00215698
12.8157	12.6964	0.000490305	0.00276819
12.8161	12.6959	0.000145198	0.00390434
12.8166	12.6954	-0.00144604	0.00379568
12.8171	12.6949	-0.000253663	0.00294208
12.8176	12.6944	6.64391e-05	0.00224057
12.818	12.694	0.000433019	0.00288538
12.8185	12.6935	0.000295975	0.00407888
12.819	12.693	-0.00134408	0.00377233
12.8194	12.6926	-0.000189707	0.00299592
12.8199	12.6921	1.0687e-05	0.00222951
12.8204	12.6917	0.000421016	0.00296543
12.8209	12.6912	0.000126721	0.00416869
12.8213	12.6907	-0.00145804	0.0037625
12.8218	12.6902	-0.000455858	0.00300215
12.8223	12.6898	0.000122388	0.00208504
12.8227	12.6893	0.000283437	0.00293988
12.8232	12.6888	0.000209618	0.00417648
12.8237	12.6884	-0.00144224	0.00388008
12.8242	12.6879	-0.000317352	0.00284104
12.8246	12.6874	0.000265567	0.00225023
12.8251	12.687	0.000340991	0.00291373
12.8256	12.6865	0.000191676	0.00417181
12.8261	12.686	-0.00145037	0.00375053
12.8265	12.6855	-0.000236524	0.00281146
12.827	12.685	0.000230824	0.00229023
12.8275	12.6845	0.000312116	0.0027895
12.8279	12.6841	0.000101182	0.00405069
12.8284	12.6836	-0.00146985	0.00368015
12.8289	12.6831	-0.00034109	0.00280631
12.8294	12.6827	0.000301379	0.00227917
12.8298	12.6822	0.000370133	0.00293413
12.8303	12.6817	0.000200415	0.00415828
12.8308	12.6813	-0.00146651	0.00370088
12.8312	12.6808	-0.000280736	0.00287653
12.8317	12.6803	0.000361198	0.00225007
12.8322	12.6798	0.00024256	0.00296994
12.8327	12.6794	0.000333054	0.00429464
12.8331	12.6789	-0.00136781	0.0036604
12.8336	12.6784	-0.000353093	0.00275697
12.8341	12.678	0.000294709	0.00222344
12.8346	12.6775	0.000252297	0.00308
12.835	12.677	0.000251227	0.00415624
12.8355	12.6765	-0.00137061	0.00361664
12.836	12.676	-0.000284874	0.0027691
12.8364	12.6756	0.000357863	0.00232808
12.8369	12.6751	0.000205213	0.00300575
12.8374	12.6746	0.000184542	0.00412961
12.8379	12.6741	-0.001307	0.00355313
12.8383	12.6736	-0.000275136	0.00268552
12.8388	12.6732	0.000543453	0.00227171
12.8393	12.6727	7.28418e-05	0.0031521
12.8397	12.6723	0.000152796	0.00422114
12.8402	12.6718	-0.00135988	0.00366867
12.8407	12.6713	-0.000312215	0.00276599
12.8412	12.6708	0.000468564	0.00234284
12.8416	12.6704	0.000179406	0.00310007
12.8421	12.6699	0.000145127	0.00428857
12.8426	12.6694	-0.00129139	0.00366195
12.8431	12.669	-0.000289208	0.00255957
12.8435	12.6685	0.000565997	0.00232464
12.844	12.6681	0.000116787	0.00317046
12.8445	12.6676	9.07125e-05	0.00421057
12.8449	12.6671	-0.00122517	0.00352011
12.8454	12.6666	-0.000475334	0.00270699
12.8459	12.6662	0.000517914	0.00232603
12.8464	12.6657	0.000108316	0.00321593
12.8468	12.6652	9.5314e-05	0.00427751
12.8473	12.6647	-0.00117762	0.00362614
12.8478	12.6642	-0.00038837	0.00265094
12.8482	12.6638	0.000649554	0.00243829
12.8487	12.6633	2.06212e-05	0.00322635
12.8492	12.6628	1.86236e-05	0.00437093
12.8497	12.6624	-0.00126225	0.00355281
12.8501	12.6619	-0.000277936	0.00259973
12.8506	12.6615	0.000629614	0.00251007
12.8511	12.661	4.00969e-05	0.00316112
12.8516	12.6605	-2.12554e-05	0.00423129
12.852	12.66	-0.00113721	0.0036903
12.8525	12.6596	-0.000442589	0.0024909
12.853	12.6591	0.000668762	0.00249262
12.8534	12.6586	3.18928e-05	0.00315022
12.8539	12.6582	-0.000113819	0.00425744
12.8544	12.6577	-0.00113034	0.00355748
12.8549	12.6572	-0.000379703	0.00260488
12.8553	12.6567	0.000773328	0.00237848
12.8558	12.6563	6.81692e-06	0.00320659
12.8563	12.6558	-0.000129157	0.00438478
12.8567	12.6553	-0.0010081	0.00364499
12.8572	12.6548	-0.000411181	0.00257637
12.8577	12.6543	0.000703041	0.00250508
12.8582	12.6539	2.62926e-05	0.00318168
12.8586	12.6534	-0.000163168	0.00418394
12.8591	12.6529	-0.00098256	0.00357525
12.8596	12.6525	-0.000479668	0.00248017
12.8601	12.652	0.000883227	0.00241617
12.8605	12.6515	3.06265e-05	0.00326871
12.861	12.651	-0.000178774	0.00425744
12.8615	12.6506	-0.00106432	0.00351732
12.8619	12.6501	-0.000460994	0.00258399
12.8624	12.6496	0.00091797	0.00265126
12.8629	12.6492	4.51621e-05	0.00328706
12.8634	12.6487	-0.000186907	0.00438027
12.8638	12.6482	-0.000826112	0.00357804
12.8643	12.6477	-0.000501408	0.00231497
12.8648	12.6473	0.000946113	0.00269765
12.8652	12.6468	-6.16694e-05	0.00327445
12.8657	12.6463	-0.000314016	0.00419704
12.8662	12.6458	-0.000998166	0.00357337
12.8667	12.6453	-0.000534885	0.00243362
12.8671	12.6449	0.000936911	0.0025549
12.8676	12.6444	3.67618e-05	0.00327477
12.8681	12.6439	-0.00031555	0.00418614
12.8686	12.6434	-0.000859588	0.00352527
12.869	12.643	-0.000458462	0.00241945
12.8695	12.6425	0.000984994	0.00271977
12.87	12.6421	3.95619e-05	0.00344431
12.8704	12.6416	-0.000459461	0.00426473
12.8709	12.6411	-0.000839845	0.00357026
12.8714	12.6406	-0.000540556	0.00236012
12.8719	12.6402	0.00108622	0.00262775
12.8723	12.6397	-0.000108415	0.00349553
12.8728	12.6392	-0.000418315	0.00420917
12.8733	12.6388	-0.000756823	0.00356903
12.8737	12.6383	-0.000520813	0.00231514
12.8742	12.6379	0.0010985	0.00267118
12.8747	12.6374	-5.60692e-05	0.00352978
12.8752	12.6369	-0.000509612	0.0042948
12.8756	12.6364	-0.00071994	0.00343841
12.8761	12.636	-0.00051441	0.00220927
12.8766	12.6355	0.00114298	0.00276009
12.8771	12.635	2.57576e-05	0.00341022
12.8775	12.6345	-0.000502942	0.00412108
12.878	12.634	-0.000729411	0.00351249
12.8785	12.6336	-0.0005827	0.00222656
12.8789	12.6331	0.0011021	0.00262292
12.8794	12.6326	0.000142327	0.00344538
12.8799	12.6322	-0.000561958	0.00418475
12.8804	12.6317	-0.000788498	0.00354519
12.8808	12.6312	-0.000551757	0.00211355
12.8813	12.6308	0.00100467	0.00283498
12.8818	12.6303	-1.23201e-05	0.0035978
12.8822	12.6298	-0.000617443	0.00426629
12.8827	12.6293	-0.000529017	0.00339138
12.8832	12.6289	-0.000571429	0.0022236
12.8837	12.6284	0.00109056	0.00275353
12.8841	12.6279	-1.7189e-05	0.00351528
12.8846	12.6275	-0.000573497	0.00413117
12.8851	12.627	-0.000665793	0.00348881
12.8856	12.6265	-0.000564027	0.00225581
12.886	12.626	0.00105555	0.00276443
12.8865	12.6255	3.18928e-05	0.00357321
12.887	12.6251	-0.000739951	0.00419876
12.8874	12.6246	-0.000523881	0.00347701
12.8879	12.6241	-0.00066986	0.00218484
12.8884	12.6236	0.000980125	0.00273158
12.8889	12.6232	6.53691e-05	0.00365122
12.8893	12.6227	-0.000719209	0.00415812
12.8898	12.6222	-0.000548689	0.0035061
12.8903	12.6218	-0.000609042	0.00223557
12.8907	12.6213	0.000992128	0.00270559
12.8912	12.6208	-2.45905e-05	0.00366286
12.8917	12.6203	-0.000867525	0.00414239
12.8922	12.6198	-0.00050881	0.0033604
12.8926	12.6194	-0.000509077	0.00217083
12.8931	12.6189	0.00101513	0.00277673
12.8936	12.6185	5.97689e-05	0.00367859
12.8941	12.618	-0.000814573	0.00411281
12.8945	12.6175	-0.000439057	0.00332271
12.895	12.617	-0.000403441	0.00213158
12.8955	12.6166	0.000840548	0.00274092
12.8959	12.6161	1.91586e-05	0.00372734
12.8964	12.6156	-0.000932676	0.00401054
12.8969	12.6151	-0.000456393	0.00326027
12.8974	12.6147	-0.000496807	0.00217813
12.8978	12.6142	0.000886562	0.00283744
12.8983	12.6137	3.11615e-05	0.00372095
12.8988	12.6132	-0.000951082	0.00403357
