# 1304     AichiSR QXAFS
# Start     : 8.9544
# End       : 9.0544
# Dir       : Forward
# Points    : 300
# ScanTime  : 1.01549
# Date      : 13.04.23 23:43
# Ring Cur. : 1[mA]
12.7557	12.7562	-0.00014116	0.00384658
12.7562	12.7558	-0.00125711	0.00390606
12.7566	12.7553	-0.000422917	0.00327445
12.7571	12.7548	-0.000386105	0.00208536
12.7576	12.7543	0.000585401	0.00276819
12.7581	12.7539	-7.52062e-05	0.00375628
12.7585	12.7534	-0.00118583	0.00394482
12.759	12.7529	-0.000536954	0.0031798
12.7595	12.7525	-0.000507009	0.00210667
12.7599	12.752	0.00056086	0.00275837
12.7604	12.7516	-5.40004e-05	0.00392442
12.7609	12.7511	-0.00132307	0.0039998
12.7614	12.7506	-0.000415248	0.0031426
12.7618	12.7501	-0.000345228	0.00212069
12.7623	12.7497	0.000575396	0.0028594
12.7628	12.7492	-4.5065e-05	0.00395433
12.7632	12.7487	-0.00139776	0.00395744
12.7637	12.7483	-0.00048887	0.00303173
12.7642	12.7478	-0.000439789	0.00208037
12.7647	12.7473	0.000485169	0.00270388
12.7651	12.7469	-0.000107951	0.00391884
12.7656	12.7464	-0.00141743	0.00379445
12.7661	12.7459	-0.000433653	0.00312064
12.7666	12.7454	-0.000311484	0.00219058
12.767	12.745	0.000377802	0.00290283
12.7675	12.7445	-9.02768e-05	0.00395261
12.768	12.744	-0.00142917	0.00378307
12.7684	12.7435	-0.000516212	0.00297757
12.7689	12.7431	-0.00013276	0.00214855
12.7694	12.7426	0.00041028	0.00281409
12.7699	12.7421	-3.7931e-05	0.00399899
12.7703	12.7417	-0.00143043	0.00376643
12.7708	12.7412	-0.000521883	0.0030028
12.7713	12.7407	-0.000157301	0.00211027
12.7717	12.7402	0.00038087	0.00277984
12.7722	12.7398	-4.11949e-05	0.00400833
12.7727	12.7393	-0.00156901	0.00380159
12.7732	12.7388	-0.000498608	0.00301665
12.7736	12.7384	-0.00019998	0.00199662
12.7741	12.7379	0.000391874	0.00287014
12.7746	12.7374	8.12422e-05	0.00404897
12.7751	12.7369	-0.00161583	0.00371129
12.7755	12.7365	-0.00043492	0.00301075
12.776	12.736	-0.000110484	0.00219418
12.7765	12.7355	0.000332323	0.00290939
12.7769	12.735	0.000152065	0.00414099
12.7774	12.7345	-0.00166311	0.00365106
12.7779	12.7341	-0.000381504	0.00290316
12.7784	12.7336	3.98294e-05	0.00215338
12.7788	12.7331	0.000235693	0.00286907
12.7793	12.7326	0.000174537	0.00413444
12.7798	12.7322	-0.00154167	0.00370522
12.7802	12.7317	-0.000433653	0.00288775
12.7807	12.7312	-9.56807e-05	0.00224196
12.7812	12.7308	8.15097e-05	0.00285457
12.7817	12.7303	5.92339e-05	0.00419565
12.7821	12.7298	-0.00159942	0.00375397
12.7826	12.7294	-0.000483538	0.00296978
12.7831	12.7289	6.87042e-05	0.00221754
12.7836	12.7284	9.81141e-05	0.00288587
12.784	12.728	8.86437e-05	0.00423269
12.7845	12.7275	-0.00155034	0.00363721
12.785	12.727	-0.00049934	0.00286096
12.7854	12.7265	5.597e-05	0.00226236
12.7859	12.7261	4.95672e-05	0.00294987
12.7864	12.7256	0.00014593	0.00429587
12.7869	12.7251	-0.00157775	0.0037253
12.7873	12.7246	-0.000445389	0.00287481
12.7878	12.7242	0.000177141	0.00221378
12.7883	12.7237	8.61111e-05	0.00299813
12.7887	12.7232	4.72309e-05	0.00426227
12.7892	12.7227	-0.00150819	0.00363983
12.7897	12.7223	-0.000452059	0.00272535
12.7902	12.7218	0.0002587	0.00234021
12.7906	12.7214	-1.15176e-05	0.00296462
12.7911	12.7209	0.00011652	0.00429276
12.7916	12.7204	-0.00151506	0.00366695
12.7921	12.7199	-0.000442856	0.00276148
12.7925	12.7195	0.000314113	0.00218747
12.793	12.719	-3.25271e-05	0.00302632
12.7935	12.7186	7.15043e-05	0.00416681
12.7939	12.7181	-0.00144244	0.00374431
12.7944	12.7176	-0.0004738	0.00265996
12.7949	12.7171	0.000326384	0.00239126
12.7954	12.7167	-6.80722e-05	0.00306599
12.7958	12.7162	9.78466e-05	0.00426973
12.7963	12.7157	-0.00140562	0.00367597
12.7968	12.7152	-0.000496272	0.0027028
12.7972	12.7147	0.000465764	0.00235234
12.7977	12.7143	7.08442e-06	0.00310507
12.7982	12.7138	-3.22596e-05	0.00420933
12.7987	12.7133	-0.00135734	0.00370071
12.7991	12.7129	-0.00046713	0.00266388
12.7996	12.7124	0.000428418	0.00228448
12.8001	12.7119	-7.46712e-05	0.0030246
12.8006	12.7115	-0.000125358	0.00431005
12.801	12.711	-0.00139669	0.00358099
12.8015	12.7105	-0.000465863	0.00264144
12.802	12.71	0.000430219	0.00230129
12.8024	12.7096	-0.000115085	0.00310942
12.8029	12.7091	-4.78652e-05	0.00426366
12.8034	12.7086	-0.00132613	0.00348291
12.8039	12.7082	-0.000524416	0.00252918
12.8043	12.7077	0.000449356	0.00240667
12.8048	12.7072	-0.000124556	0.00318914
12.8053	12.7067	-0.00011562	0.004131
12.8057	12.7063	-0.00136501	0.00350503
12.8062	12.7058	-0.000614643	0.00259178
12.8067	12.7053	0.000567263	0.00234332
12.8072	12.7048	-0.000129692	0.00316842
12.8076	12.7043	-0.000304279	0.00435536
12.8081	12.7038	-0.00129933	0.00355608
12.8086	12.7034	-0.000498608	0.00250459
12.8091	12.7029	0.000712172	0.00251893
12.8095	12.7024	-0.000108219	0.00318243
12.81	12.702	-0.000308345	0.00420155
12.8105	12.7015	-0.00119956	0.00355002
12.8109	12.701	-0.000586499	0.00246444
12.8114	12.7005	0.000637551	0.00243969
12.8119	12.7001	-0.000125626	0.00333017
12.8124	12.6996	-0.000389173	0.00424826
12.8128	12.6992	-0.00127018	0.00361058
12.8133	12.6987	-0.000465328	0.00234037
12.8138	12.6982	0.000667495	0.00248033
12.8142	12.6978	-0.000152699	0.00327928
12.8147	12.6973	-0.000433386	0.00426866
12.8152	12.6968	-0.00116382	0.00357305
12.8157	12.6963	-0.000639719	0.00240184
12.8161	12.6959	0.000730114	0.00237913
12.8166	12.6954	-0.000134561	0.00325641
12.8171	12.6949	-0.000463063	0.00424482
12.8176	12.6944	-0.000995562	0.00354223
12.818	12.6939	-0.000677796	0.00226204
12.8185	12.6935	0.000787329	0.00249574
12.819	12.693	-0.000292008	0.00343325
12.8194	12.6926	-0.000594703	0.00412682
12.8199	12.6921	-0.00100403	0.0033196
12.8204	12.6916	-0.000691333	0.00226065
12.8209	12.6912	0.000840281	0.00254105
12.8213	12.6907	-0.000272336	0.00329453
12.8218	12.6902	-0.000634315	0.00410314
12.8223	12.6897	-0.00102957	0.00347013
12.8227	12.6893	-0.000716142	0.00219665
12.8232	12.6888	0.000805734	0.00260735
12.8237	12.6884	-9.00093e-05	0.00331992
12.8242	12.6879	-0.000602372	0.00419393
12.8246	12.6874	-0.000981758	0.00352511
12.8251	12.6869	-0.000782095	0.00212896
12.8256	12.6864	0.000846683	0.00257014
12.8261	12.686	-0.000165433	0.00338778
12.8265	12.6855	-0.000792832	0.00419188
12.827	12.685	-0.000966152	0.00338547
12.8275	12.6845	-0.00070207	0.00231186
12.8279	12.684	0.000881694	0.00271043
12.8284	12.6836	-0.000152699	0.0033976
12.8289	12.6831	-0.000713805	0.00420654
12.8294	12.6826	-0.000836314	0.00354658
12.8298	12.6822	-0.000780026	0.0022549
12.8303	12.6817	0.000889363	0.00263398
12.8308	12.6812	-1.74565e-05	0.00345226
12.8312	12.6808	-0.000871056	0.00419065
12.8317	12.6803	-0.00069927	0.00350175
12.8322	12.6798	-0.000861389	0.00222656
12.8327	12.6793	0.000871759	0.00267446
12.8331	12.6789	-0.00020665	0.00347873
12.8336	12.6784	-0.000797701	0.00415205
12.8341	12.6779	-0.000900733	0.00348103
12.8346	12.6775	-0.00073428	0.00209594
12.835	12.677	0.000984262	0.00270887
12.8355	12.6765	-0.000239127	0.00359673
12.836	12.676	-0.000937812	0.00413444
12.8364	12.6755	-0.000675995	0.00341097
12.8369	12.6751	-0.000693402	0.0021238
12.8374	12.6746	0.000871759	0.00274328
12.8379	12.6741	-0.00021612	0.0036758
12.8383	12.6736	-0.000884593	0.00416418
12.8388	12.6732	-0.000668326	0.00343825
12.8393	12.6727	-0.000680329	0.0021959
12.8397	12.6722	0.000881426	0.00266356
12.8402	12.6718	-0.000197911	0.00366598
12.8407	12.6713	-0.00100863	0.00412682
12.8412	12.6708	-0.000646853	0.00333114
12.8416	12.6703	-0.000650723	0.00221533
12.8421	12.6699	0.000746183	0.00274795
12.8426	12.6694	-0.000133758	0.00362786
12.8431	12.669	-0.00107819	0.00415828
12.8435	12.6685	-0.000743483	0.00333393
12.844	12.668	-0.000656591	0.00215928
12.8445	12.6676	0.000723711	0.00268535
12.8449	12.6671	-0.000119687	0.00374619
12.8454	12.6666	-0.00103291	0.00407872
12.8459	12.6661	-0.000597503	0.00325265
12.8464	12.6657	-0.000595702	0.0020925
12.8468	12.6652	0.000697904	0.00277394
12.8473	12.6647	-0.00011842	0.00381748
12.8478	12.6642	-0.00113187	0.00394966
12.8482	12.6637	-0.000585233	0.00325609
12.8487	12.6633	-0.000572231	0.0021551
12.8492	12.6628	0.000760255	0.0027632
12.8497	12.6624	-0.00013449	0.00373013
12.8501	12.6619	-0.00120496	0.0039853
12.8506	12.6614	-0.000524416	0.00312842
12.8511	12.6609	-0.000542286	0.00219869
12.8516	12.6605	0.000543988	0.00276116
12.852	12.66	-8.08064e-05	0.00373153
12.8525	12.6595	-0.00123744	0.00408527
12.853	12.6591	-0.000532085	0.00307286
12.8534	12.6586	-0.000455127	0.00200843
12.8539	12.6581	0.000570794	0.00280245
12.8544	12.6577	-3.22596e-05	0.00383305
12.8549	12.6572	-0.00125404	0.00393033
12.8553	12.6567	-0.000592171	0.00316874
12.8558	12.6562	-0.000379435	0.0021828
12.8563	12.6557	0.000463963	0.00285146
12.8567	12.6553	-0.000139626	0.00383289
12.8572	12.6548	-0.00136555	0.00400506
12.8577	12.6543	-0.000556358	0.00316751
12.8582	12.6538	-0.000426519	0.00215789
12.8586	12.6534	0.000349659	0.00275509
12.8591	12.6529	-7.71866e-06	0.00383584
12.8596	12.6524	-0.00130439	0.00393532
12.8601	12.652	-0.000604709	0.00307066
12.8605	12.6515	-0.000426716	0.0020612
12.861	12.651	0.000494104	0.00270838
12.8615	12.6505	4.10957e-05	0.00373185
12.8619	12.6501	-0.00147391	0.00386075
12.8624	12.6496	-0.000465328	0.00294798
12.8629	12.6491	-0.000334223	0.0020925
12.8634	12.6487	0.000399275	0.00288571
12.8638	12.6482	-3.63972e-05	0.00392475
12.8643	12.6477	-0.00142456	0.00389876
12.8648	12.6472	-0.000500606	0.00307737
12.8652	12.6468	-0.000220454	0.00219869
12.8657	12.6463	0.000515577	0.00290799
12.8662	12.6458	-4.14624e-05	0.00402234
12.8667	12.6453	-0.00160889	0.0038061
12.8671	12.6448	-0.000587034	0.00292791
12.8676	12.6444	-0.00020558	0.00219681
12.8681	12.6439	0.00034306	0.00291341
12.8686	12.6434	2.85577e-05	0.00411764
12.869	12.643	-0.00161609	0.00386854
12.8695	12.6425	-0.000478936	0.00307066
12.87	12.642	-0.000270267	0.0022214
12.8704	12.6416	0.00029931	0.00289849
12.8709	12.6411	2.2155e-06	0.00408306
12.8714	12.6406	-0.00153527	0.00389017
12.8719	12.6401	-0.000425449	0.00295609
12.8723	12.6397	-0.000126357	0.00229581
12.8728	12.6392	0.00029651	0.00286284
12.8733	12.6388	-0.000110751	0.00415935
12.8737	12.6383	-0.00156494	0.00375225
12.8742	12.6378	-0.000523417	0.00298879
12.8747	12.6373	-4.24612e-05	0.00231621
12.8752	12.6369	0.000284971	0.00287604
12.8756	12.6364	7.1308e-05	0.00417755
12.8761	12.6359	-0.00157334	0.00378274
12.8766	12.6354	-0.0004738	0.00306508
12.8771	12.635	-4.78652e-05	0.00219075
12.8775	12.6345	0.000211152	0.00292914
12.878	12.634	0.000107852	0.00424342
12.8785	12.6335	-0.0014205	0.00379289
12.8789	12.6331	-0.000411181	0.00292775
12.8794	12.6326	9.01775e-05	0.00225286
12.8799	12.6321	0.000259431	0.00284072
12.8804	12.6317	0.000153599	0.00421245
12.8808	12.6312	-0.00165697	0.00374586
12.8813	12.6307	-0.000387104	0.00285178
12.8818	12.6302	0.000118321	0.00221222
12.8822	12.6298	0.000150264	0.00300403
12.8827	12.6293	0.000105319	0.00429373
12.8832	12.6289	-0.00151939	0.00376627
12.8837	12.6284	-0.000557428	0.00276878
12.8841	12.6279	0.000218286	0.00236823
12.8846	12.6274	3.67618e-05	0.00303222
12.8851	12.627	5.74326e-05	0.00417148
12.8856	12.6265	-0.00146318	0.00372144
12.886	12.626	-0.000457392	0.0027523
12.8865	12.6255	0.0002671	0.00226081
12.887	12.625	0.000102181	0.00294847
12.8874	12.6246	5.39012e-05	0.00426833
12.8879	12.6241	-0.00161096	0.00367489
12.8884	12.6236	-0.00039991	0.00276459
12.8889	12.6231	0.000253029	0.00232587
12.8893	12.6227	-8.10739e-05	0.00299781
12.8898	12.6222	3.5763e-05	0.00424793
12.8903	12.6217	-0.00159355	0.00356747
12.8907	12.6213	-0.000545889	0.00266291
12.8912	12.6208	0.000395673	0.00226408
12.8917	12.6203	1.90874e-05	0.00304263
12.8922	12.6198	6.28365e-05	0.0042263
12.8926	12.6194	-0.00151839	0.00376873
12.8931	12.6189	-0.000352362	0.00257481
12.8936	12.6184	0.000521249	0.00227482
12.8941	12.618	-8.9813e-05	0.00304558
12.8945	12.6175	-0.000112018	0.0042045
12.895	12.617	-0.00140923	0.00359034
12.8955	12.6165	-0.000560424	0.00260907
12.8959	12.6161	0.000402076	0.0022359
12.8964	12.6156	-3.25271e-05	0.00309557
12.8969	12.6151	-0.000107684	0.00411952
12.8974	12.6146	-0.00133633	0.00359329
12.8978	12.6142	-0.000553558	0.00265217
12.8983	12.6137	0.000526581	0.00229039
12.8988	12.6132	-4.19974e-05	0.00308687
