# 1304     AichiSR QXAFS
# Start     : 8.9544
# End       : 9.0544
# Dir       : Backward
# Points    : 300
# ScanTime  : 1.01549
# Date      : 13.04.24 00:20
# Ring Cur. : 1[mA]
12.7557	12.6124	-0.000150898	0.00425277
12.7562	12.6128	-0.00111807	0.00351437
12.7566	12.6133	-0.00043492	0.00255162
12.7571	12.6138	0.000685366	0.00236791
12.7576	12.6143	5.0566e-05	0.00325544
12.7581	12.6147	-0.000184642	0.00423687
12.7585	12.6152	-0.0010081	0.00354223
12.759	12.6157	-0.000551222	0.00237569
12.7595	12.6162	0.000871492	0.00259194
12.7599	12.6166	-0.00013836	0.00329469
12.7604	12.6171	-0.000257997	0.0042839
12.7609	12.6176	-0.000970486	0.0035374
12.7614	12.6181	-0.000507811	0.00234676
12.7618	12.6185	0.000850482	0.00257138
12.7623	12.619	5.97689e-05	0.00329313
12.7628	12.6195	-0.0002672	0.0042095
12.7632	12.6199	-0.000925542	0.00365106
12.7637	12.6204	-0.000565828	0.00239282
12.7642	12.6209	0.000973187	0.00259145
12.7647	12.6214	-6.32032e-05	0.00333689
12.7651	12.6218	-0.000450525	0.00428186
12.7656	12.6223	-0.000840647	0.00347652
12.7661	12.6228	-0.000574496	0.00225474
12.7666	12.6232	0.00106682	0.00269937
12.767	12.6237	-4.29962e-05	0.00348946
12.7675	12.6242	-0.000535152	0.00419081
12.768	12.6247	-0.000838579	0.00351093
12.7684	12.6251	-0.000557161	0.00231981
12.7689	12.6256	0.000967319	0.0024909
12.7694	12.6261	-0.000128158	0.00334139
12.7699	12.6266	-0.000506741	0.0041986
12.7703	12.6271	-0.000891798	0.00352388
12.7708	12.6275	-0.000585037	0.00233693
12.7713	12.628	0.000966784	0.00269314
12.7717	12.6285	-6.01356e-05	0.00341973
12.7722	12.6289	-0.000567095	0.00411093
12.7727	12.6294	-0.00074375	0.00345972
12.7732	12.6299	-0.000591636	0.00229457
12.7736	12.6303	0.00108316	0.00262324
12.7741	12.6308	-0.000142694	0.00342096
12.7746	12.6313	-0.00063485	0.0041192
12.7751	12.6318	-0.000715143	0.00345505
12.7755	12.6322	-0.000646853	0.00222672
12.776	12.6327	0.00100467	0.00269765
12.7765	12.6332	1.42897e-05	0.00350626
12.7769	12.6336	-0.000551489	0.00414378
12.7774	12.6341	-0.000642251	0.00339261
12.7779	12.6346	-0.000622579	0.00214699
12.7784	12.635	0.0010062	0.00270667
12.7788	12.6355	5.46325e-05	0.00351577
12.7793	12.636	-0.000749618	0.00414534
12.7798	12.6365	-0.000741752	0.00349913
12.7802	12.6369	-0.000613911	0.00217223
12.7807	12.6374	0.00106042	0.00266651
12.7812	12.6379	-2.38592e-05	0.0034893
12.7817	12.6384	-0.000760889	0.0042081
12.7821	12.6388	-0.000658856	0.0033772
12.7826	12.6393	-0.000682665	0.00223606
12.7831	12.6398	0.000965054	0.00267322
12.7836	12.6402	-1.63865e-05	0.00356961
12.784	12.6407	-0.000797166	0.0041564
12.7845	12.6412	-0.000569627	0.00337597
12.785	12.6416	-0.000590369	0.00211913
12.7854	12.6421	0.000765927	0.0028004
12.7859	12.6426	-4.9934e-05	0.0036168
12.7864	12.643	-0.000937081	0.00408027
12.7869	12.6435	-0.000586035	0.00334016
12.7873	12.644	-0.000582433	0.00208767
12.7878	12.6444	0.000955316	0.00275321
12.7883	12.6449	-8.23402e-05	0.00356419
12.7887	12.6454	-0.000925274	0.00410985
12.7892	12.6459	-0.000446655	0.00331541
12.7897	12.6463	-0.00067933	0.00206324
12.7902	12.6468	0.000892698	0.00272846
12.7906	12.6473	9.78466e-05	0.00368793
12.7911	12.6478	-0.00101243	0.00392491
12.7916	12.6483	-0.00032115	0.00317545
12.7921	12.6487	-0.000522882	0.00213626
12.7925	12.6492	0.000888364	0.00281146
12.793	12.6497	1.37547e-05	0.00374742
12.7935	12.6501	-0.00113821	0.00400678
12.7939	12.6506	-0.000455394	0.0032533
12.7944	12.6511	-0.000376903	0.00219279
12.7949	12.6516	0.000677162	0.00271305
12.7954	12.6521	-3.83948e-05	0.00377979
12.7958	12.6525	-0.00102884	0.00395368
12.7963	12.653	-0.000454128	0.00325609
12.7968	12.6534	-0.000461262	0.00210356
12.7972	12.6539	0.000743116	0.00277721
12.7977	12.6544	1.09545e-05	0.0039
12.7982	12.6549	-0.00118629	0.00392942
12.7987	12.6554	-0.000361832	0.003163
12.7991	12.6558	-0.000220187	0.00218248
12.7996	12.6563	0.000674362	0.00274903
12.8001	12.6568	-2.73907e-05	0.00386247
12.8006	12.6573	-0.00126045	0.00395916
12.801	12.6577	-0.000492473	0.00314072
12.8015	12.6582	-0.000255999	0.00207258
12.802	12.6587	0.000617611	0.00285301
12.8024	12.6591	2.82902e-05	0.00384272
12.8029	12.6596	-0.00120063	0.00385812
12.8034	12.6601	-0.000401443	0.00314104
12.8039	12.6605	-0.000203315	0.00217346
12.8043	12.661	0.000496975	0.00290176
12.8048	12.6615	9.96479e-05	0.00401365
12.8053	12.662	-0.00124331	0.0038047
12.8057	12.6624	-0.000377901	0.00304419
12.8062	12.6629	-0.000258532	0.00218141
12.8067	12.6634	0.000545522	0.0028317
12.8072	12.6638	0.000130592	0.00394966
12.8076	12.6643	-0.00125791	0.00396458
12.8081	12.6648	-0.000440787	0.0029089
12.8086	12.6652	-1.7189e-05	0.00210995
12.8091	12.6657	0.000470098	0.00285661
12.8095	12.6662	0.000181207	0.00396211
12.81	12.6667	-0.00137268	0.00384846
12.8105	12.6672	-0.000434652	0.00298863
12.8109	12.6676	-0.000103082	0.00212273
12.8114	12.6681	0.000511511	0.00290037
12.8119	12.6686	0.000100183	0.00407372
12.8124	12.669	-0.00140896	0.00384035
12.8128	12.6695	-0.000354163	0.00302567
12.8133	12.6699	7.25743e-05	0.00218887
12.8138	12.6704	0.000451692	0.00295561
12.8142	12.6709	8.58436e-05	0.00410411
12.8147	12.6714	-0.00140896	0.0037194
12.8152	12.6718	-0.000342891	0.00293537
12.8157	12.6723	9.43152e-05	0.00214044
12.8161	12.6728	0.000334855	0.00297928
12.8166	12.6732	0.00012039	0.00420622
12.8171	12.6737	-0.0014205	0.00380175
12.8176	12.6742	-0.000257997	0.00291341
12.818	12.6746	0.00014593	0.00220476
12.8185	12.6751	0.000290375	0.0030414
12.819	12.6756	0.000320249	0.00420204
12.8194	12.6761	-0.00136655	0.00368375
12.8199	12.6766	-0.00025113	0.00288152
12.8204	12.6771	0.000156666	0.00225565
12.8209	12.6775	0.000274769	0.00282204
12.8213	12.678	0.000336657	0.00421384
12.8218	12.6785	-0.00137241	0.003699
12.8223	12.679	-0.000287139	0.00305681
12.8227	12.6794	0.000381601	0.00224508
12.8232	12.6799	0.000225688	0.00291545
12.8237	12.6804	0.000179138	0.00418598
12.8242	12.6808	-0.00154347	0.00374447
12.8246	12.6813	-0.000397573	0.00284228
12.8251	12.6818	0.00029264	0.00229941
12.8256	12.6822	0.000171202	0.00303608
12.8261	12.6827	0.000260965	0.00426989
12.8265	12.6832	-0.00139496	0.00370587
12.827	12.6836	-0.000332155	0.00290251
12.8275	12.6841	0.000222353	0.00226253
12.8279	12.6846	0.000163337	0.00296355
12.8284	12.6851	0.000221354	0.0043021
12.8289	12.6856	-0.00139362	0.00364499
12.8294	12.686	-0.000230388	0.00273174
12.8298	12.6865	0.000433554	0.00219542
12.8303	12.687	0.000209815	0.00309106
12.8308	12.6875	4.74984e-05	0.00415656
12.8312	12.688	-0.00130132	0.00362507
12.8317	12.6884	-0.000388174	0.00274156
12.8322	12.6889	0.000469563	0.00235078
12.8327	12.6893	0.000156399	0.00314415
12.8331	12.6898	0.000167403	0.004337
12.8336	12.6903	-0.00125224	0.00361508
12.8341	12.6907	-0.000470197	0.00269346
12.8346	12.6912	0.000494639	0.00232915
12.835	12.6917	8.58436e-05	0.00306491
12.8355	12.6922	6.35311e-06	0.00415968
12.836	12.6926	-0.00129772	0.0037616
12.8364	12.6931	-0.000456393	0.0026511
12.8369	12.6935	0.000473166	0.00236184
12.8374	12.694	3.0894e-05	0.003158
12.8379	12.6945	2.06212e-05	0.00419532
12.8383	12.695	-0.00118583	0.00365556
12.8388	12.6954	-0.000465863	0.00261685
12.8393	12.6959	0.000473968	0.00239921
12.8397	12.6964	7.63733e-05	0.00308204
12.8402	12.6969	-5.47317e-05	0.00424063
12.8407	12.6974	-0.00115461	0.00363082
12.8412	12.6978	-0.000391706	0.00263382
12.8416	12.6983	0.00049924	0.00239298
12.8421	12.6988	6.61716e-05	0.00321373
12.8426	12.6992	-0.000109217	0.00417803
12.8431	12.6997	-0.00105618	0.00366244
12.8435	12.7001	-0.000452862	0.00246862
12.844	12.7006	0.000734912	0.00251131
12.8445	12.7011	6.56366e-05	0.00330247
12.8449	12.7016	-0.000281806	0.00414378
12.8454	12.7021	-0.00104391	0.00357928
12.8459	12.7025	-0.000367165	0.00244157
12.8464	12.703	0.000870957	0.00250196
12.8468	12.7035	-7.54737e-05	0.00326092
12.8473	12.7039	-0.000199712	0.00425899
12.8478	12.7044	-0.000913004	0.00361229
12.8482	12.7049	-0.000606974	0.00251114
12.8487	12.7054	0.000851552	0.00248935
12.8492	12.7058	8.55761e-05	0.00347561
12.8497	12.7063	-0.000273067	0.00434495
12.8501	12.7068	-0.000957752	0.00347545
12.8506	12.7073	-0.000513411	0.00242272
12.8511	12.7078	0.000909302	0.00261374
12.8516	12.7082	-7.64725e-05	0.00320954
12.852	12.7087	-0.000411645	0.00420123
12.8525	12.7092	-0.000954684	0.00357649
12.853	12.7096	-0.000497806	0.0022622
12.8534	12.7101	0.00101487	0.00265405
12.8539	12.7106	-3.09933e-05	0.00331557
12.8544	12.7111	-0.000352362	0.00418115
12.8549	12.7115	-0.000935744	0.00344399
12.8553	12.712	-0.00041498	0.0023598
12.8558	12.7125	0.000960185	0.00253589
12.8563	12.7129	-0.000192043	0.00345816
12.8567	12.7134	-0.000352362	0.00414051
12.8572	12.7139	-0.00087926	0.00341629
12.8577	12.7143	-0.000558962	0.00221099
12.8582	12.7148	0.000964519	0.0025295
12.8586	12.7153	-9.48782e-05	0.00329952
12.8591	12.7158	-0.000427982	0.00409273
12.8596	12.7163	-0.000819709	0.00351282
12.8601	12.7167	-0.000551757	0.00226065
12.8605	12.7172	0.00108189	0.00260128
12.861	12.7177	-8.10739e-05	0.00357493
12.8615	12.7182	-0.000590369	0.00414706
12.8619	12.7186	-0.000662726	0.00339089
12.8624	12.7191	-0.000547155	0.00208692
12.8629	12.7196	0.00101387	0.00274854
12.8634	12.72	-6.62708e-05	0.00343588
12.8638	12.7205	-0.000610576	0.00420901
12.8643	12.721	-0.000714875	0.00346267
12.8648	12.7214	-0.000605975	0.00222967
12.8652	12.7219	0.00100747	0.00274092
12.8657	12.7224	-3.37934e-05	0.0034725
12.8662	12.7228	-0.000580631	0.00412682
12.8667	12.7233	-0.000601106	0.00342547
12.8671	12.7238	-0.000581434	0.00209159
12.8676	12.7242	0.00100087	0.00274795
12.8681	12.7247	7.61942e-06	0.00349258
12.8686	12.7252	-0.000722009	0.00406938
12.869	12.7257	-0.000691868	0.00345398
12.8695	12.7261	-0.000559693	0.00220009
12.87	12.7266	0.00106448	0.00272567
12.8704	12.7271	-1.74565e-05	0.00356199
12.8709	12.7276	-0.00067373	0.00408355
12.8714	12.728	-0.000585233	0.00339122
12.8719	12.7285	-0.000520278	0.00219091
12.8723	12.729	0.00109669	0.00272133
12.8728	12.7294	-0.000120489	0.00359017
12.8733	12.7299	-0.000759356	0.00414206
12.8737	12.7304	-0.000507276	0.0032919
12.8742	12.7309	-0.000568093	0.00213797
12.8747	12.7313	0.0010162	0.00282376
12.8752	12.7318	-8.59429e-05	0.00371891
12.8756	12.7323	-0.000850385	0.00416295
12.8761	12.7327	-0.000532548	0.00334467
12.8766	12.7332	-0.00054489	0.00212101
12.8771	12.7337	0.00091904	0.00282236
12.8775	12.7342	-3.93936e-05	0.00354674
12.878	12.7346	-0.000994296	0.00399448
12.8785	12.7351	-0.000532085	0.00334467
12.8789	12.7356	-0.000583967	0.00215945
12.8794	12.7361	0.000892965	0.00264488
12.8799	12.7366	6.56366e-05	0.00376364
12.8804	12.737	-0.00103084	0.00410642
12.8808	12.7375	-0.000404244	0.00321282
12.8813	12.738	-0.000525682	0.00212708
12.8818	12.7385	0.000756456	0.00276771
12.8822	12.7389	2.08887e-05	0.0037398
12.8827	12.7394	-0.00102451	0.00391803
12.8832	12.7399	-0.00039604	0.00312375
12.8837	12.7403	-0.000416247	0.00207226
12.8841	12.7408	0.000686632	0.00282188
12.8846	12.7413	2.72914e-05	0.00379708
12.8851	12.7418	-0.00108199	0.00393409
12.8856	12.7422	-0.000356696	0.00329002
12.886	12.7427	-0.00034389	0.00213888
12.8865	12.7432	0.000722445	0.00282703
12.887	12.7436	1.75169e-06	0.00390311
12.8874	12.7441	-0.00109859	0.00402406
12.8879	12.7446	-0.00049934	0.00310056
12.8884	12.745	-0.000360494	0.00211306
12.8889	12.7455	0.000690699	0.00276943
12.8893	12.746	1.21669e-06	0.00398858
12.8898	12.7465	-0.0011104	0.0039445
12.8903	12.747	-0.000328819	0.00313997
12.8907	12.7474	-0.000222987	0.00211167
12.8912	12.7479	0.00064242	0.00285645
12.8917	12.7484	7.5107e-05	0.00396555
12.8922	12.7488	-0.00116255	0.003836
12.8926	12.7493	-0.000370232	0.00302116
12.8931	12.7498	-0.000198981	0.00215494
12.8936	12.7502	0.00063195	0.00279573
12.8941	12.7507	8.991e-05	0.00385173
12.8945	12.7512	-0.00125458	0.00397612
12.895	12.7517	-0.000425717	0.00303968
12.8955	12.7521	-0.000140429	0.00212101
12.8959	12.7526	0.000558328	0.00285973
12.8964	12.753	0.000187342	0.00401907
12.8969	12.7535	-0.00128572	0.003836
12.8974	12.754	-0.000278471	0.00305369
12.8978	12.7544	-4.18723e-06	0.00208316
12.8983	12.7549	0.000465229	0.00286998
12.8988	12.7554	2.11562e-05	0.0040915
