# 1304     AichiSR QXAFS
# Start     : 8.9544
# End       : 9.0544
# Dir       : Backward
# Points    : 300
# ScanTime  : 1.01549
# Date      : 13.04.23 22:47
# Ring Cur. : 1[mA]
12.7557	12.612	0.00055139	0.00247893
12.7562	12.6125	-1.7189e-05	0.00314383
12.7566	12.6129	-0.000111019	0.00417336
12.7571	12.6134	-0.00128246	0.0036663
12.7576	12.6139	-0.000557624	0.00268659
12.7581	12.6144	0.000667959	0.00238971
12.7585	12.6148	-9.38794e-05	0.00324331
12.759	12.6153	-8.24114e-05	0.00428578
12.7595	12.6158	-0.00114208	0.00363098
12.7599	12.6163	-0.000526681	0.00255441
12.7604	12.6167	0.00071351	0.00260423
12.7609	12.6172	-8.64778e-05	0.00330854
12.7614	12.6177	-0.000207916	0.00425711
12.7618	12.6182	-0.00103851	0.00362598
12.7623	12.6186	-0.000465863	0.0025345
12.7628	12.6191	0.000672828	0.00253434
12.7632	12.6196	3.62268e-05	0.00331557
12.7637	12.62	-0.000228123	0.00420123
12.7642	12.6205	-0.00109399	0.00350905
12.7647	12.621	-0.000491938	0.00254728
12.7651	12.6215	0.000846416	0.00249509
12.7656	12.6219	-7.7275e-05	0.0033786
12.7661	12.6224	-0.000357231	0.00423408
12.7666	12.6229	-0.00097696	0.00361852
12.767	12.6233	-0.00053822	0.00236217
12.7675	12.6238	0.000886562	0.00254416
12.768	12.6243	-0.000161902	0.00340474
12.7684	12.6248	-0.000458194	0.00416418
12.7689	12.6252	-0.000960552	0.00353289
12.7694	12.6257	-0.000576833	0.00246009
12.7699	12.6262	0.0007902	0.0025994
12.7703	12.6267	-8.69417e-05	0.00331181
12.7708	12.6272	-0.000458194	0.00431816
12.7713	12.6276	-0.000862121	0.00363221
12.7717	12.6281	-0.000646585	0.00232915
12.7722	12.6286	0.00095405	0.0026838
12.7727	12.629	-0.000165237	0.00345816
12.7732	12.6295	-0.00054382	0.00417041
12.7736	12.63	-0.000852918	0.00356543
12.7741	12.6304	-0.000679865	0.00223246
12.7746	12.6309	0.000901366	0.0025994
12.7751	12.6314	-7.52062e-05	0.00339073
12.7755	12.6319	-0.000691601	0.00422458
12.776	12.6323	-0.000823508	0.00361976
12.7765	12.6328	-0.000672731	0.00225426
12.7769	12.6333	0.000996265	0.0027596
12.7774	12.6337	-7.24061e-05	0.00347217
12.7779	12.6342	-0.000742484	0.00427505
12.7784	12.6347	-0.000836046	0.00356108
12.7788	12.6352	-0.0005799	0.00204317
12.7793	12.6356	0.000913903	0.0026838
12.7798	12.6361	-0.000115353	0.00361697
12.7802	12.6366	-0.000780294	0.00408167
12.7807	12.6371	-0.000748619	0.0035374
12.7812	12.6375	-0.000668861	0.00208364
12.7817	12.638	0.000952249	0.00277582
12.7821	12.6385	-0.000117422	0.00373652
12.7826	12.6389	-0.000838846	0.00417852
12.7831	12.6394	-0.000747888	0.00347513
12.7836	12.6399	-0.000652257	0.00208332
12.784	12.6403	0.00089243	0.00286579
12.7845	12.6408	-0.000138627	0.00353289
12.785	12.6413	-0.00093141	0.00415157
12.7854	12.6418	-0.000569698	0.0033895
12.7859	12.6422	-0.00063098	0.00230923
12.7864	12.6427	0.000942315	0.00274624
12.7869	12.6431	-0.000142961	0.00386075
12.7873	12.6436	-0.000863387	0.00413133
12.7878	12.6441	-0.00059597	0.00341113
12.7883	12.6445	-0.000596505	0.00215633
12.7887	12.645	0.000853354	0.00284523
12.7892	12.6455	-0.000214051	0.003694
12.7897	12.646	-0.00107099	0.00410207
12.7902	12.6465	-0.000587034	0.00332631
12.7906	12.647	-0.000685733	0.00210405
12.7911	12.6474	0.000831809	0.00281442
12.7916	12.6479	-8.77442e-05	0.003782
12.7921	12.6484	-0.00108119	0.00416107
12.7925	12.6489	-0.000520082	0.003257
12.793	12.6493	-0.000461797	0.0022345
12.7935	12.6498	0.000717309	0.00278033
12.7939	12.6503	-8.52115e-07	0.00383477
12.7944	12.6507	-0.00103471	0.00404897
12.7949	12.6512	-0.000522079	0.00339465
12.7954	12.6517	-0.000510076	0.00219697
12.7958	12.6522	0.000615275	0.00290128
12.7963	12.6526	-4.04636e-05	0.00406175
12.7968	12.6531	-0.00118196	0.00405676
12.7972	12.6536	-0.000508275	0.00334139
12.7977	12.654	-0.000407311	0.00229989
12.7982	12.6545	0.000627616	0.00289645
12.7987	12.655	-6.22044e-05	0.00400538
12.7991	12.6555	-0.00119656	0.0041069
12.7996	12.656	-0.000476065	0.00328239
12.8001	12.6564	-0.000342624	0.00220009
12.8006	12.6569	0.000642152	0.00282778
12.801	12.6574	3.92944e-05	0.00396925
12.8015	12.6579	-0.00136221	0.00412182
12.802	12.6583	-0.000372569	0.00316439
12.8024	12.6588	-0.000396842	0.00222
12.8029	12.6593	0.000555991	0.00298739
12.8034	12.6597	6.97742e-05	0.00394434
12.8039	12.6602	-0.00135528	0.00395105
12.8043	12.6607	-0.000388638	0.00319537
12.8048	12.6611	-0.000239591	0.00218968
12.8053	12.6616	0.000386274	0.00296183
12.8057	12.6621	2.44913e-05	0.00404618
12.8062	12.6625	-0.00130873	0.00396613
12.8067	12.663	-0.000410914	0.0031426
12.8072	12.6635	-0.000130691	0.00229441
12.8076	12.6639	0.000428685	0.00291873
12.8081	12.6644	1.45572e-05	0.00418909
12.8086	12.6649	-0.00140669	0.00387288
12.8091	12.6654	-0.000435187	0.00314136
12.8095	12.6658	-8.06101e-05	0.00230735
12.81	12.6663	0.000423549	0.00293864
12.8105	12.6668	0.000102716	0.00417524
12.8109	12.6673	-0.00148519	0.0038528
12.8114	12.6678	-0.000354163	0.00303828
12.8119	12.6682	-2.4858e-05	0.00221909
12.8124	12.6687	0.000348125	0.00297118
12.8128	12.6691	0.000162802	0.00419221
12.8133	12.6696	-0.0015424	0.00391245
12.8138	12.6701	-0.000375101	0.00314104
12.8142	12.6705	9.99154e-05	0.0022468
12.8147	12.671	0.000490038	0.00305058
12.8152	12.6715	0.000236424	0.00432454
12.8157	12.672	-0.0014205	0.00383756
12.8161	12.6724	-0.000465328	0.00297757
12.8166	12.6729	0.000165334	0.00240216
12.8171	12.6733	0.000233892	0.00297912
12.8176	12.6738	0.000157398	0.00429775
12.818	12.6743	-0.00162683	0.0037194
12.8185	12.6748	-0.000291741	0.00285146
12.819	12.6753	0.000296778	0.00225147
12.8194	12.6757	0.000216752	0.0030945
12.8199	12.6762	0.000259431	0.00424498
12.8204	12.6767	-0.00150432	0.00387197
12.8209	12.6772	-0.000350293	0.00300264
12.8213	12.6777	0.000152065	0.00236651
12.8218	12.6781	0.000181939	0.00303206
12.8223	12.6786	0.000144128	0.00431595
12.8227	12.6791	-0.00146398	0.00377545
12.8232	12.6795	-0.000318885	0.00292651
12.8237	12.68	0.000274502	0.00236372
12.8242	12.6805	0.000108316	0.00304328
12.8246	12.681	0.000172004	0.00436765
12.8251	12.6814	-0.0014445	0.0037194
12.8256	12.6819	-0.000458194	0.00280803
12.8261	12.6824	0.000394941	0.00234488
12.8265	12.6828	3.98294e-05	0.00310475
12.827	12.6833	-1.58342e-06	0.00424326
12.8275	12.6838	-0.00142663	0.00368531
12.8279	12.6842	-0.000475334	0.00268535
12.8284	12.6847	0.000293175	0.00235062
12.8289	12.6852	0.000145127	0.00312499
12.8294	12.6857	8.12422e-05	0.00423875
12.8298	12.6862	-0.00127065	0.003659
12.8303	12.6866	-0.000440056	0.00266479
12.8308	12.6871	0.000549856	0.00239282
12.8312	12.6876	-7.93438e-05	0.00315022
12.8317	12.6881	-5.49992e-05	0.00431397
12.8322	12.6886	-0.00137629	0.00364359
12.8327	12.689	-0.000467665	0.00263693
12.8331	12.6895	0.000514311	0.00245026
12.8336	12.6899	-8.10739e-05	0.00311285
12.8341	12.6904	-7.00698e-05	0.00435053
12.8346	12.6909	-0.00131313	0.00371022
12.835	12.6914	-0.000418583	0.00266512
12.8355	12.6918	0.000648555	0.00250336
12.836	12.6923	-2.55893e-05	0.00328862
12.8364	12.6927	-0.000159298	0.0042948
12.8369	12.6932	-0.00124151	0.00365605
12.8374	12.6937	-0.000475066	0.00269969
12.8379	12.6941	0.000628348	0.0024705
12.8383	12.6946	3.74931e-06	0.00329501
12.8388	12.6951	-0.000334223	0.00436379
12.8393	12.6956	-0.00111727	0.00373947
12.8397	12.6961	-0.000543356	0.00254228
12.8402	12.6965	0.000740583	0.00246132
12.8407	12.697	5.28312e-06	0.00333812
12.8412	12.6975	-0.000385838	0.00439396
12.8416	12.698	-0.00115255	0.00370571
12.8421	12.6984	-0.000401443	0.00254835
12.8426	12.6989	0.00081681	0.00255007
12.8431	12.6993	-0.000117422	0.00336647
12.8435	12.6998	-0.00028614	0.00446557
12.844	12.7003	-0.00106592	0.00366974
12.8445	12.7008	-0.000484269	0.00251909
12.8449	12.7012	0.000805271	0.00262152
12.8454	12.7017	-3.27946e-05	0.00342998
12.8459	12.7022	-0.000407311	0.00433839
12.8464	12.7026	-0.00106512	0.00353584
12.8468	12.7031	-0.000616712	0.00244715
12.8473	12.7036	0.000838747	0.00269797
12.8478	12.704	-4.47975e-05	0.0035469
12.8482	12.7045	-0.000526413	0.00424809
12.8487	12.705	-0.000866187	0.0036168
12.8492	12.7055	-0.000611111	0.00255302
12.8497	12.706	0.000996997	0.00255876
12.8501	12.7065	-0.000103617	0.00344726
12.8506	12.7069	-0.000666525	0.0042213
12.8511	12.7074	-0.000928074	0.00347062
12.8516	12.7079	-0.000604441	0.00229146
12.852	12.7084	0.000937446	0.00264799
12.8525	12.7088	-0.000200247	0.0034049
12.853	12.7093	-0.000604174	0.00421041
12.8534	12.7098	-0.00102271	0.00357477
12.8539	12.7102	-0.000531817	0.00230456
12.8544	12.7107	0.000935912	0.00271821
12.8549	12.7112	-6.9606e-05	0.0035097
12.8553	12.7117	-0.000671929	0.00417074
12.8558	12.7121	-0.000783629	0.00355748
12.8563	12.7126	-0.000672464	0.00237397
12.8567	12.7131	0.00104561	0.00276148
12.8572	12.7135	-0.000170035	0.00352774
12.8577	12.714	-0.000642786	0.004254
12.8582	12.7145	-0.000712539	0.00350036
12.8586	12.715	-0.000605975	0.00225925
12.8591	12.7154	0.00107675	0.00274763
12.8596	12.7159	-7.82738e-05	0.00357665
12.8601	12.7164	-0.000791833	0.00434199
12.8605	12.7169	-0.000822777	0.00353429
12.861	12.7173	-0.000729214	0.00222532
12.8615	12.7178	0.00095792	0.00270667
12.8619	12.7183	-7.98076e-05	0.00375988
12.8624	12.7188	-0.000837847	0.00414067
12.8629	12.7192	-0.000794169	0.00335353
12.8634	12.7197	-0.000637115	0.00226515
12.8638	12.7201	0.000900367	0.00273829
12.8643	12.7206	-6.68058e-05	0.00359484
12.8648	12.7211	-0.00100937	0.0041178
12.8652	12.7216	-0.000611308	0.00342579
12.8657	12.722	-0.000715143	0.00207742
12.8662	12.7225	0.000879696	0.00286096
12.8667	12.7229	-0.000107684	0.00369342
12.8671	12.7234	-0.000972822	0.00418335
12.8676	12.7239	-0.000520813	0.00337393
12.8681	12.7244	-0.000602372	0.0022105
12.8686	12.7248	0.00069357	0.00277517
12.869	12.7253	-2.5393e-05	0.00370834
12.8695	12.7258	-0.00105825	0.00409879
12.87	12.7263	-0.000496807	0.00338778
12.8704	12.7267	-0.000492741	0.00217018
12.8709	12.7272	0.000805538	0.00290021
12.8714	12.7277	-7.6205e-05	0.00370227
12.8719	12.7282	-0.00105718	0.00405488
12.8723	12.7286	-0.000578099	0.00328739
12.8728	12.7291	-0.000509077	0.00222779
12.8733	12.7296	0.000770724	0.00289194
12.8737	12.73	-0.000141962	0.00386451
12.8742	12.7305	-0.00113901	0.0040443
12.8747	12.731	-0.000468663	0.0032796
12.8752	12.7315	-0.0003733	0.00230735
12.8756	12.7319	0.000735447	0.00296667
12.8761	12.7324	-1.7189e-05	0.00381002
12.8766	12.7329	-0.00115868	0.003954
12.8771	12.7333	-0.000460263	0.0032388
12.8775	12.7338	-0.000422649	0.00211897
12.878	12.7343	0.000659559	0.00285489
12.8785	12.7348	-3.04583e-05	0.00388303
12.8789	12.7352	-0.00129239	0.00407495
12.8794	12.7357	-0.000555823	0.00312638
12.8799	12.7362	-0.000298411	0.00220615
12.8804	12.7367	0.000479836	0.0028907
12.8808	12.7372	0.000135924	0.00399357
12.8813	12.7377	-0.00126278	0.00402251
12.8818	12.7381	-0.000406045	0.00331321
12.8822	12.7386	-0.000230388	0.002102
12.8827	12.7391	0.000615346	0.00296855
12.8832	12.7395	1.40222e-05	0.00403373
12.8837	12.74	-0.00133334	0.00394343
12.8841	12.7405	-0.000399642	0.00320627
12.8846	12.7409	-0.00018284	0.00218935
12.8851	12.7414	0.000499972	0.00291078
12.8856	12.7419	-7.03373e-05	0.00414115
12.886	12.7423	-0.00139749	0.00386296
12.8865	12.7428	-0.0003705	0.00311597
12.887	12.7433	-0.000133491	0.00221984
12.8874	12.7437	0.00048417	0.00287153
12.8879	12.7442	2.44913e-05	0.00407372
12.8884	12.7447	-0.00143764	0.00400227
12.8889	12.7452	-0.000397645	0.00301198
12.8893	12.7457	-2.25929e-05	0.00218141
12.8898	12.7461	0.000405678	0.00297773
12.8903	12.7466	7.48395e-05	0.00419999
12.8907	12.7471	-0.00149232	0.00384551
12.8912	12.7476	-0.00038277	0.00311736
12.8917	12.748	-8.25365e-06	0.00227154
12.8922	12.7485	0.000428953	0.00292463
12.8926	12.749	0.000213952	0.00425014
12.8931	12.7494	-0.00157695	0.00385673
12.8936	12.7499	-0.000299945	0.00301821
12.8941	12.7504	0.000107852	0.00234488
12.8945	12.7508	0.000281172	0.00312499
12.895	12.7513	0.000194744	0.00428235
12.8955	12.7518	-0.00157795	0.00372283
12.8959	12.7522	-0.000294077	0.00297445
12.8964	12.7527	0.000130324	0.00236184
12.8969	12.7532	0.000288841	0.00296871
12.8974	12.7536	0.000107584	0.00434495
12.8978	12.7541	-0.00146751	0.00382806
12.8983	12.7546	-0.000476333	0.00293381
12.8988	12.755	0.000165334	0.00234799
