# 1304     AichiSR QXAFS
# Start     : 8.9544
# End       : 9.0544
# Dir       : Backward
# Points    : 300
# ScanTime  : 1.01549
# Date      : 13.04.23 23:03
# Ring Cur. : 0.9[mA]
12.7557	12.6122	-0.000651187	0.00220739
12.7562	12.6127	0.000947647	0.00269658
12.7566	12.6131	-1.59227e-05	0.00353863
12.7571	12.6136	-0.000626913	0.0041732
12.7576	12.614	-0.000715874	0.00339465
12.7581	12.6145	-0.000562029	0.00209717
12.7585	12.615	0.000988525	0.00268208
12.759	12.6155	-0.000111019	0.00347684
12.7595	12.616	-0.000683664	0.00400866
12.7599	12.6164	-0.000597771	0.00342702
12.7604	12.6169	-0.000596772	0.00218124
12.7609	12.6174	0.00096352	0.00270125
12.7614	12.6179	-9.0348e-05	0.00352371
12.7618	12.6183	-0.000719209	0.00404463
12.7623	12.6188	-0.000678064	0.00333656
12.7628	12.6193	-0.000519547	0.0021456
12.7632	12.6197	0.00099293	0.00276927
12.7637	12.6202	-3.12608e-05	0.00361557
12.7642	12.6207	-0.000759356	0.00412559
12.7647	12.6212	-0.000593704	0.00330001
12.7651	12.6216	-0.000532887	0.00213609
12.7656	12.6221	0.00096352	0.00278033
12.7661	12.6226	-6.8536e-05	0.00365089
12.7666	12.623	-0.000776495	0.00412059
12.767	12.6235	-0.000592171	0.00339105
12.7675	12.624	-0.000411181	0.00210791
12.768	12.6244	0.000922839	0.00273968
12.7684	12.6249	-8.18764e-05	0.00355002
12.7689	12.6254	-0.000769825	0.00407405
12.7694	12.6259	-0.000433921	0.00337441
12.7699	12.6264	-0.00054382	0.00215011
12.7703	12.6268	0.000940781	0.00269609
12.7708	12.6273	1.29522e-05	0.0036794
12.7713	12.6278	-0.000907404	0.00400071
12.7717	12.6283	-0.000513411	0.00326994
12.7722	12.6287	-0.000426983	0.00207242
12.7727	12.6292	0.000929509	0.00279933
12.7732	12.6297	0.000108048	0.00364901
12.7736	12.6301	-0.000986894	0.00408446
12.7741	12.6306	-0.000467665	0.00339122
12.7746	12.6311	-0.000473532	0.00218935
12.7751	12.6316	0.000863555	0.00279852
12.7755	12.632	-2.76582e-05	0.00375193
12.776	12.6325	-0.000897398	0.00403529
12.7765	12.633	-0.000426519	0.00327461
12.7769	12.6334	-0.000444658	0.00214232
12.7774	12.6339	0.000894231	0.00273813
12.7779	12.6344	-1.85092e-06	0.00380814
12.7784	12.6348	-0.00100196	0.004018
12.7788	12.6353	-0.000369233	0.00321529
12.7793	12.6358	-0.00044999	0.00218312
12.7798	12.6363	0.000813207	0.00280164
12.7802	12.6367	8.99812e-05	0.00371677
12.7807	12.6372	-0.00107379	0.00402144
12.7812	12.6377	-0.000507276	0.00324347
12.7817	12.6382	-0.000347225	0.00204128
12.7821	12.6386	0.000785331	0.00275214
12.7826	12.6391	-3.11723e-06	0.00363065
12.7831	12.6396	-0.00104698	0.00390778
12.7836	12.64	-0.00043212	0.00317341
12.784	12.6405	-0.000413714	0.00219263
12.7845	12.641	0.000814473	0.0027537
12.785	12.6414	-0.000114621	0.00381732
12.7854	12.6419	-0.001105	0.00389468
12.7859	12.6424	-0.000479935	0.00326355
12.7864	12.6428	-0.000417049	0.00206464
12.7869	12.6433	0.000772793	0.00280507
12.7873	12.6438	0.000136994	0.00389173
12.7878	12.6442	-0.00113134	0.00393392
12.7883	12.6447	-0.000339824	0.0030632
12.7887	12.6452	-0.000233723	0.00211151
12.7892	12.6457	0.000772793	0.00277238
12.7897	12.6462	0.000113185	0.00379461
12.7902	12.6466	-0.0012249	0.00396104
12.7906	12.6471	-0.00044439	0.00317481
12.7911	12.6476	-0.000336756	0.00224851
12.7916	12.6481	0.000650356	0.00282859
12.7921	12.6485	7.5642e-05	0.00391229
12.7925	12.649	-0.0012175	0.00388255
12.793	12.6495	-0.000398376	0.00310244
12.7935	12.6499	-0.000229122	0.0021456
12.7939	12.6504	0.000785064	0.00272068
12.7944	12.6509	0.000198079	0.00380003
12.7949	12.6514	-0.00126992	0.0038782
12.7954	12.6519	-0.000399642	0.00295609
12.7958	12.6523	-0.000216317	0.00221582
12.7963	12.6528	0.000666693	0.00282376
12.7968	12.6532	9.71153e-05	0.00386542
12.7972	12.6537	-0.00120776	0.00390311
12.7977	12.6542	-0.000319349	0.00308343
12.7982	12.6547	-0.000187174	0.00214002
12.7987	12.6551	0.000691501	0.00275869
12.7991	12.6556	0.000113452	0.00391852
12.7996	12.6561	-0.00124664	0.0038097
12.8001	12.6566	-0.000244193	0.0030414
12.8006	12.6571	-0.000159833	0.00220041
12.801	12.6575	0.000507177	0.00275386
12.8015	12.658	5.85026e-05	0.00400678
12.802	12.6585	-0.0013172	0.0038519
12.8024	12.659	-0.000397573	0.00301542
12.8029	12.6594	3.18928e-05	0.00223606
12.8034	12.6599	0.000429952	0.00287497
12.8039	12.6603	0.00016767	0.00394638
12.8043	12.6608	-0.0013338	0.00378479
12.8048	12.6613	-0.000251594	0.00300527
12.8053	12.6618	-5.91735e-06	0.00212708
12.8057	12.6622	0.000581531	0.00296822
12.8062	12.6627	2.52938e-05	0.00414566
12.8067	12.6632	-0.00134688	0.00381952
12.8072	12.6636	-0.000304011	0.0030414
12.8076	12.6641	-6.65383e-05	0.00213814
12.8081	12.6646	0.000460093	0.00278312
12.8086	12.6651	9.5314e-05	0.00413772
12.8091	12.6655	-0.00130673	0.00380814
12.8095	12.666	-0.000322149	0.0029547
12.81	12.6665	-3.78598e-05	0.00225458
12.8105	12.667	0.000425083	0.00292823
12.8109	12.6674	5.29023e-05	0.00406299
12.8114	12.6679	-0.00141356	0.00381469
12.8119	12.6684	-0.000179505	0.00297118
12.8124	12.6688	1.29522e-05	0.00217845
12.8128	12.6693	0.000460164	0.00286547
12.8133	12.6698	0.000213417	0.00409584
12.8138	12.6702	-0.00139696	0.00374758
12.8142	12.6707	-0.000336756	0.00295561
12.8147	12.6712	0.000144396	0.00229178
12.8152	12.6717	0.000471899	0.0029343
12.8157	12.6721	0.000284775	0.00412666
12.8161	12.6726	-0.00144811	0.00375193
12.8166	12.673	-0.000195111	0.00287342
12.8171	12.6735	9.96479e-05	0.00224352
12.8176	12.674	0.000373201	0.00293225
12.818	12.6745	0.000101182	0.00407732
12.8185	12.6749	-0.00142843	0.00364204
12.819	12.6754	-0.000257533	0.00291529
12.8194	12.6759	0.000147998	0.0022046
12.8199	12.6764	0.000301379	0.002903
12.8204	12.6769	0.000214683	0.00414378
12.8209	12.6773	-0.00150306	0.0038287
12.8213	12.6778	-0.000287674	0.00282671
12.8218	12.6783	0.000236157	0.00230547
12.8223	12.6788	0.000368867	0.0029293
12.8227	12.6792	0.000221621	0.0041287
12.8232	12.6797	-0.00142357	0.00367876
12.8237	12.6802	-0.000241392	0.00290734
12.8242	12.6806	0.000268367	0.00229973
12.8246	12.6811	0.00041028	0.00296495
12.8251	12.6816	0.00018094	0.00412263
12.8256	12.6821	-0.00135581	0.00365401
12.8261	12.6825	-0.000241927	0.00286735
12.8265	12.683	0.000250229	0.00223901
12.827	12.6835	0.000301647	0.00297027
12.8275	12.6839	0.000369866	0.00428874
12.8279	12.6844	-0.00132793	0.00378446
12.8284	12.6849	-0.000328819	0.00284121
12.8289	12.6854	0.000260965	0.0021646
12.8294	12.6859	0.00032205	0.00296511
12.8298	12.6863	0.000115253	0.00417696
12.8303	12.6868	-0.00141356	0.00365744
12.8308	12.6873	-0.000291277	0.00285039
12.8312	12.6878	0.000332323	0.00224803
12.8317	12.6882	0.000164603	0.00299034
12.8322	12.6887	9.73116e-05	0.00415591
12.8327	12.6892	-0.00133867	0.00380019
12.8331	12.6896	-0.000329087	0.00270871
12.8336	12.6901	0.000389805	0.00230064
12.8341	12.6906	0.000235693	0.00302223
12.8346	12.691	3.95619e-05	0.00415205
12.835	12.6915	-0.00139462	0.00369293
12.8355	12.692	-0.000282805	0.0027487
12.836	12.6924	0.000416147	0.00229474
12.8364	12.6929	0.000137726	0.00297273
12.8369	12.6934	0.00025483	0.00426227
12.8374	12.6938	-0.00129086	0.00356763
12.8379	12.6943	-0.000346494	0.0027042
12.8383	12.6948	0.000479568	0.00236947
12.8388	12.6953	5.13685e-05	0.00309573
12.8393	12.6957	9.68478e-05	0.0042635
12.8397	12.6962	-0.00117502	0.00366958
12.8402	12.6967	-0.000317815	0.00268068
12.8407	12.6972	0.000505643	0.00227326
12.8412	12.6976	7.99759e-05	0.00311097
12.8416	12.6981	0.000132393	0.00417557
12.8421	12.6986	-0.0012147	0.0035701
12.8426	12.699	-0.000320883	0.00257932
12.8431	12.6995	0.000440956	0.00226548
12.8435	12.7	0.000122191	0.00309482
12.844	12.7004	4.62321e-05	0.00433496
12.8445	12.7009	-0.00136728	0.00366662
12.8449	12.7014	-0.000418583	0.00264611
12.8454	12.7019	0.000572328	0.00231079
12.8459	12.7023	0.000150799	0.0030632
12.8464	12.7028	-7.98616e-06	0.00421524
12.8468	12.7033	-0.00119269	0.00345768
12.8473	12.7037	-0.000279738	0.00262931
12.8478	12.7042	0.000655421	0.00224336
12.8482	12.7047	5.67013e-05	0.00309852
12.8487	12.7052	5.75038e-05	0.00425556
12.8492	12.7057	-0.00126992	0.00350954
12.8497	12.7061	-0.000320419	0.00256671
12.8501	12.7066	0.000565194	0.0023525
12.8506	12.7071	0.000110117	0.00309524
12.8511	12.7076	5.15648e-05	0.00435036
12.8516	12.7081	-0.00119756	0.00359533
12.852	12.7085	-0.000344158	0.00256564
12.8525	12.709	0.000656224	0.00242756
12.853	12.7095	2.80939e-05	0.003158
12.8534	12.7099	-3.65935e-05	0.00414673
12.8539	12.7104	-0.00118015	0.00352806
12.8544	12.7109	-0.000326019	0.00265577
12.8549	12.7114	0.00076359	0.0023153
12.8553	12.7118	-8.98496e-06	0.00325142
12.8558	12.7123	-4.35312e-05	0.0042576
12.8563	12.7127	-0.00116328	0.00353912
12.8567	12.7132	-0.00040271	0.00253901
12.8572	12.7137	0.000685099	0.00244854
12.8577	12.7142	-3.89298e-05	0.00325142
12.8582	12.7146	-0.000106417	0.00428407
12.8586	12.7151	-0.00113747	0.00349258
12.8591	12.7156	-0.000484537	0.00248747
12.8596	12.7161	0.000755921	0.00240356
12.8601	12.7166	-0.000101548	0.00322479
12.8605	12.717	-7.98076e-05	0.00423269
12.861	12.7175	-0.00103291	0.00352527
12.8615	12.718	-0.000479133	0.00240732
12.8619	12.7184	0.000844882	0.00261808
12.8624	12.7189	9.68478e-05	0.00329157
12.8629	12.7194	-0.000201781	0.00426678
12.8634	12.7198	-0.00105205	0.00365138
12.8638	12.7203	-0.000375369	0.00245821
12.8643	12.7208	0.000900367	0.00240216
12.8648	12.7212	1.32197e-05	0.0033255
12.8652	12.7217	-0.000142426	0.00419983
12.8657	12.7222	-0.00109219	0.0034798
12.8662	12.7226	-0.000448724	0.00245789
12.8667	12.7231	0.00074292	0.00251565
12.8671	12.7236	-4.01961e-05	0.00317857
12.8676	12.724	-0.000247795	0.00439535
12.8681	12.7245	-0.00103011	0.00341629
12.8686	12.725	-0.000534617	0.00234037
12.869	12.7255	0.00091624	0.00248484
12.8695	12.7259	9.88454e-06	0.00331214
12.87	12.7264	-0.000292276	0.00419704
12.8704	12.7269	-0.00106485	0.0036327
12.8709	12.7274	-0.000505475	0.00239798
12.8714	12.7278	0.000874292	0.00243936
12.8719	12.7283	1.04195e-05	0.00328411
12.8723	12.7288	-0.000373835	0.00429029
12.8728	12.7292	-0.000944946	0.00347996
12.8733	12.7297	-0.000481933	0.00240511
12.8737	12.7302	0.000937446	0.00246272
12.8742	12.7307	4.55181e-06	0.0032388
12.8747	12.7311	-0.000453058	0.00420311
12.8752	12.7316	-0.000840112	0.00345038
12.8756	12.7321	-0.000466398	0.00233521
12.8761	12.7326	0.00101874	0.00256343
12.8766	12.733	-3.7396e-05	0.0031893
12.8771	12.7335	-0.000434652	0.00419033
12.8775	12.734	-0.000835047	0.00354428
12.878	12.7344	-0.000451524	0.00222746
12.8785	12.7349	0.00106909	0.00264423
12.8789	12.7354	6.08561e-06	0.00335524
12.8794	12.7359	-0.000420848	0.00415951
12.8799	12.7364	-0.000821243	0.00361508
12.8804	12.7369	-0.000541751	0.00222065
12.8808	12.7373	0.00103128	0.00256875
12.8813	12.7378	-4.453e-05	0.00351265
12.8818	12.7383	-0.000526681	0.00414845
12.8822	12.7387	-0.000871591	0.00347684
12.8827	12.7392	-0.000431585	0.00222967
12.8832	12.7397	0.00095405	0.00245059
12.8837	12.7401	-0.000107951	0.00339417
12.8841	12.7406	-0.000449723	0.00424949
12.8846	12.7411	-0.000852187	0.00347357
12.8851	12.7416	-0.000673195	0.00228539
12.8856	12.742	0.00105628	0.00261374
12.886	12.7425	-9.38794e-05	0.00348635
12.8865	12.743	-0.000490939	0.00413288
12.887	12.7434	-0.000738417	0.00340727
12.8874	12.7439	-0.000594971	0.00215977
12.8879	12.7444	0.00101034	0.00270436
12.8884	12.7449	-4.32637e-05	0.00350004
12.8889	12.7453	-0.000566096	0.00412682
12.8893	12.7458	-0.000713341	0.00343513
12.8898	12.7463	-0.000575031	0.00214543
12.8903	12.7468	0.000935377	0.00269749
12.8907	12.7472	1.75169e-06	0.00358459
12.8912	12.7477	-0.000806369	0.00410207
12.8917	12.7482	-0.000696202	0.00336958
12.8922	12.7487	-0.000627983	0.00216551
12.8926	12.7491	0.00105735	0.0026838
12.8931	12.7496	2.44913e-05	0.00356607
12.8936	12.75	-0.000733281	0.00404446
12.8941	12.7505	-0.000593972	0.00353568
12.8945	12.751	-0.000659123	0.00211478
12.895	12.7515	0.00103507	0.00271961
12.8955	12.7519	-7.80063e-05	0.00351282
12.8959	12.7524	-0.000828377	0.00415157
12.8964	12.7529	-0.000632781	0.0033073
12.8969	12.7533	-0.000635849	0.0020648
12.8974	12.7538	0.00108469	0.00278934
12.8978	12.7543	-4.27287e-05	0.00344538
12.8983	12.7547	-0.00067373	0.00409133
12.8988	12.7552	-0.000470465	0.00344415
