# 1304     AichiSR QXAFS
# Start     : 8.9544
# End       : 9.0544
# Dir       : Forward
# Points    : 300
# ScanTime  : 1.01549
# Date      : 13.04.23 22:45
# Ring Cur. : 1[mA]
12.7557	12.7559	-0.000117422	0.00334623
12.7562	12.7554	-0.000501676	0.00417025
12.7566	12.755	-0.000936279	0.0033772
12.7571	12.7545	-0.000542554	0.00221066
12.7576	12.754	0.00108622	0.00249853
12.7581	12.7536	-2.9727e-05	0.00333844
12.7585	12.7531	-0.000616177	0.00406782
12.759	12.7526	-0.000842449	0.00354207
12.7595	12.7522	-0.000648386	0.00213642
12.7599	12.7517	0.00101	0.00251549
12.7604	12.7512	-4.19974e-05	0.00329764
12.7609	12.7508	-0.000491938	0.00411109
12.7614	12.7503	-0.000848049	0.00349708
12.7618	12.7498	-0.000571429	0.0021769
12.7623	12.7494	0.00104635	0.00257965
12.7628	12.7489	-0.000156766	0.00339261
12.7632	12.7484	-0.000590637	0.00412977
12.7637	12.748	-0.000821974	0.00337548
12.7642	12.7475	-0.000771091	0.00213437
12.7647	12.747	0.000992663	0.00254212
12.7651	12.7465	-7.70075e-05	0.00341113
12.7656	12.7461	-0.000750688	0.00403931
12.7661	12.7456	-0.000726878	0.00331369
12.7666	12.7451	-0.000603639	0.00216321
12.767	12.7446	0.00106168	0.00260456
12.7675	12.7441	-0.000154233	0.00339572
12.768	12.7437	-0.000652453	0.00413616
12.7684	12.7432	-0.00066986	0.00337081
12.7689	12.7427	-0.000559961	0.00215231
12.7694	12.7423	0.00104688	0.00264938
12.7699	12.7418	-2.66593e-05	0.00347963
12.7703	12.7414	-0.000842181	0.00414583
12.7708	12.7409	-0.000730748	0.00333517
12.7713	12.7404	-0.000637186	0.00210012
12.7717	12.7399	0.000972723	0.00273239
12.7722	12.7395	-0.000158032	0.00347749
12.7727	12.739	-0.000764492	0.00418614
12.7732	12.7385	-0.000510344	0.0033028
12.7736	12.7381	-0.000644053	0.00213454
12.7741	12.7376	0.00092851	0.00272616
12.7746	12.7371	9.29777e-05	0.00358083
12.7751	12.7366	-0.000842716	0.00416091
12.7755	12.7361	-0.000618977	0.00334344
12.776	12.7357	-0.000623114	0.00211199
12.7765	12.7352	0.000983192	0.00275853
12.7769	12.7347	-5.96006e-05	0.00361385
12.7774	12.7342	-0.000818443	0.00406782
12.7779	12.7337	-0.000599572	0.00325265
12.7784	12.7333	-0.000542019	0.00206292
12.7788	12.7328	0.000981659	0.00281007
12.7793	12.7323	-2.94595e-05	0.00355469
12.7798	12.7319	-0.000963887	0.0040611
12.7802	12.7314	-0.000491938	0.00329764
12.7807	12.7309	-0.000635385	0.00209143
12.7812	12.7304	0.000856885	0.00266061
12.7817	12.73	-0.00014783	0.0036495
12.7821	12.7295	-0.00096642	0.00395728
12.7826	12.729	-0.00055329	0.00324191
12.7831	12.7286	-0.0005743	0.00202915
12.7836	12.7281	0.000772526	0.00267258
12.784	12.7276	2.60251e-05	0.00365835
12.7845	12.7271	-0.000994563	0.00410158
12.785	12.7267	-0.000531282	0.00314415
12.7854	12.7262	-0.000397841	0.00198728
12.7859	12.7257	0.000664892	0.00279246
12.7864	12.7252	-4.8864e-05	0.00370538
12.7869	12.7248	-0.00102984	0.00388083
12.7873	12.7243	-0.000578366	0.00320111
12.7878	12.7238	-0.00037717	0.00211741
12.7883	12.7233	0.000758186	0.00270125
12.7887	12.7229	-6.04031e-05	0.00370195
12.7892	12.7224	-0.00106918	0.00393983
12.7897	12.722	-0.00044719	0.00312203
12.7902	12.7215	-0.000398911	0.00214232
12.7906	12.721	0.000808606	0.00284539
12.7911	12.7205	-7.98076e-05	0.00383085
12.7916	12.7201	-0.00105645	0.00390746
12.7921	12.7196	-0.000503941	0.00312515
12.7925	12.7192	-0.000286872	0.00204735
12.793	12.7187	0.000655956	0.00278483
12.7935	12.7182	4.14193e-07	0.00378323
12.7939	12.7178	-0.0011068	0.00385264
12.7944	12.7173	-0.000530818	0.0031703
12.7949	12.7168	-0.000252397	0.00224508
12.7954	12.7163	0.000635214	0.00275788
12.7958	12.7159	-4.96168e-08	0.00393843
12.7963	12.7154	-0.00122237	0.0038156
12.7968	12.7149	-0.000369501	0.00307909
12.7972	12.7144	-0.000229389	0.00210217
12.7977	12.7139	0.000610941	0.0027523
12.7982	12.7135	3.21603e-05	0.00380675
12.7987	12.713	-0.00122183	0.00381437
12.7991	12.7125	-0.000451792	0.0029919
12.7996	12.7121	-0.000126089	0.00222156
12.8001	12.7116	0.000578463	0.00285022
12.8006	12.7111	0.000143593	0.0038796
12.801	12.7106	-0.00117122	0.00383445
12.8015	12.7102	-0.000322684	0.00301837
12.802	12.7097	-6.09381e-05	0.00213953
12.8024	12.7092	0.000533252	0.00283793
12.8029	12.7088	7.23068e-05	0.00386698
12.8034	12.7083	-0.00127118	0.00384518
12.8039	12.7078	-0.000281004	0.00297134
12.8043	12.7074	-0.000103617	0.00206201
12.8048	12.7069	0.000436354	0.00276927
12.8053	12.7064	3.0894e-05	0.00398063
12.8057	12.7059	-0.00134427	0.00372841
12.8062	12.7054	-0.000249329	0.00302304
12.8067	12.7049	-0.000150363	0.00206496
12.8072	12.7045	0.000387005	0.00281565
12.8076	12.704	6.28365e-05	0.00398358
12.8081	12.7035	-0.00134074	0.00389484
12.8086	12.703	-0.000457124	0.00296855
12.8091	12.7026	-6.04031e-05	0.00209561
12.8095	12.7021	0.000459094	0.00286751
12.81	12.7016	0.000139527	0.00401456
12.8105	12.7012	-0.00139335	0.00373373
12.8109	12.7007	-0.000319617	0.00287497
12.8114	12.7002	4.62321e-05	0.00220009
12.8119	12.6997	0.000417681	0.00293086
12.8124	12.6993	0.00011652	0.00409133
12.8128	12.6988	-0.00148465	0.00371956
12.8133	12.6984	-0.000322417	0.00302599
12.8138	12.6979	9.83816e-05	0.00225925
12.8142	12.6974	0.000312847	0.00286268
12.8147	12.6969	0.000162267	0.00416435
12.8152	12.6965	-0.00131413	0.00372112
12.8157	12.696	-0.000341357	0.00288538
12.8161	12.6955	7.91734e-05	0.00216567
12.8166	12.695	0.000312383	0.00282827
12.8171	12.6946	0.000129789	0.00415533
12.8176	12.6941	-0.00139849	0.00375488
12.818	12.6936	-0.000261599	0.00293569
12.8185	12.6932	0.000248231	0.00225458
12.819	12.6927	0.000329987	0.00293086
12.8194	12.6922	0.000202948	0.00419081
12.8199	12.6918	-0.001523	0.00371333
12.8204	12.6913	-0.000379703	0.00266807
12.8209	12.6908	0.000218286	0.00221115
12.8213	12.6903	0.000206747	0.00292356
12.8218	12.6899	0.000282439	0.00415017
12.8223	12.6894	-0.00138595	0.00367285
12.8227	12.689	-0.000327553	0.00289038
12.8232	12.6885	0.000183205	0.00225286
12.8237	12.688	0.000317449	0.00291357
12.8242	12.6875	0.000179673	0.00418861
12.8246	12.6871	-0.00145804	0.00369293
12.8251	12.6866	-0.000352094	0.00280647
12.8256	12.6861	0.00041695	0.00221206
12.8261	12.6856	0.000204482	0.00288152
12.8265	12.6851	0.000207282	0.00412075
12.827	12.6847	-0.00139262	0.00361508
12.8275	12.6842	-0.000361029	0.00268396
12.8279	12.6837	0.000303377	0.00220943
12.8284	12.6832	0.000135728	0.00295684
12.8289	12.6828	0.000177605	0.00411436
12.8294	12.6823	-0.00141329	0.00373701
12.8298	12.6818	-0.000284072	0.00257122
12.8303	12.6814	0.000330985	0.00226687
12.8308	12.6809	0.000192943	0.00299797
12.8312	12.6804	0.000214951	0.00430382
12.8317	12.6799	-0.00128959	0.00359812
12.8322	12.6795	-0.000273335	0.00266463
12.8327	12.679	0.000429952	0.0022949
12.8331	12.6785	0.000138796	0.00301944
12.8336	12.6781	0.000172468	0.00417696
12.8341	12.6776	-0.00130239	0.00359345
12.8346	12.6771	-0.000328088	0.00266152
12.835	12.6766	0.000516112	0.00228088
12.8355	12.6762	0.000109653	0.0031004
12.836	12.6757	0.000198079	0.00418738
12.8364	12.6752	-0.00126171	0.00349569
12.8369	12.6747	-0.000423648	0.00264471
12.8374	12.6742	0.000520714	0.00237897
12.8379	12.6738	0.000144396	0.00297633
12.8383	12.6733	5.67013e-05	0.00436454
12.8388	12.6728	-0.00125918	0.00361353
12.8393	12.6724	-0.000307346	0.00259473
12.8397	12.6719	0.000672828	0.00242707
12.8402	12.6714	5.33662e-05	0.0030364
12.8407	12.671	4.74984e-05	0.00439101
12.8412	12.6705	-0.00119522	0.00358083
12.8416	12.67	-0.000344425	0.00260767
12.8421	12.6695	0.000740583	0.0024333
12.8426	12.6691	-7.44749e-05	0.00302272
12.8431	12.6686	-0.000132492	0.0043057
12.8435	12.6682	-0.00120723	0.00353257
12.844	12.6677	-0.000446191	0.0024705
12.8445	12.6672	0.000639619	0.00245714
12.8449	12.6667	-5.84616e-07	0.00319414
12.8454	12.6663	-2.94595e-05	0.00412666
12.8459	12.6658	-0.00110987	0.00356124
12.8464	12.6653	-0.000468663	0.00242568
12.8468	12.6648	0.000792733	0.00241741
12.8473	12.6644	1.09545e-05	0.00322184
12.8478	12.6639	-0.000204581	0.00416918
12.8482	12.6634	-0.0011086	0.00351265
12.8487	12.663	-0.000505207	0.00247222
12.8492	12.6625	0.000714972	0.00253434
12.8497	12.662	-7.18366e-06	0.00326092
12.8501	12.6616	-0.000263865	0.00425277
12.8506	12.6611	-0.000999896	0.00345832
12.8511	12.6606	-0.000491403	0.00241912
12.8516	12.6601	0.000740851	0.00248156
12.852	12.6597	-2.20579e-05	0.00325421
12.8525	12.6592	-0.000199177	0.00426833
12.853	12.6587	-0.00110887	0.00357198
12.8534	12.6583	-0.000488335	0.00237414
12.8539	12.6578	0.000882692	0.00253294
12.8544	12.6573	-0.000156766	0.00313137
12.8549	12.6568	-0.000182109	0.0042467
12.8553	12.6564	-0.00103137	0.00363286
12.8558	12.6559	-0.000384304	0.00246116
12.8563	12.6554	0.000937713	0.00257965
12.8567	12.6549	-9.84808e-05	0.00330419
12.8572	12.6544	-0.000301746	0.00419516
12.8577	12.654	-0.000946748	0.00354969
12.8582	12.6535	-0.000419582	0.00241601
12.8586	12.653	0.000904433	0.00250008
12.8591	12.6526	-2.41267e-05	0.00325281
12.8596	12.6521	-0.000398376	0.00415173
12.8601	12.6516	-0.000816642	0.00340818
12.8605	12.6512	-0.000579098	0.00234423
12.861	12.6507	0.000944312	0.00258195
12.8615	12.6502	-0.000183108	0.00331181
12.8619	12.6497	-0.000481201	0.00423269
12.8624	12.6493	-0.000800501	0.00341892
12.8629	12.6488	-0.00057883	0.00235234
12.8634	12.6483	0.000986527	0.00265921
12.8638	12.6479	-7.39399e-05	0.00333205
12.8643	12.6474	-0.000504209	0.0041827
12.8648	12.6469	-0.000782363	0.00345005
12.8652	12.6464	-0.000571232	0.00217051
12.8657	12.6459	0.00101027	0.00262415
12.8662	12.6455	-8.46765e-05	0.00348774
12.8667	12.645	-0.000514678	0.00418378
12.8671	12.6445	-0.000780561	0.00337269
12.8676	12.644	-0.000435455	0.00216723
12.8681	12.6435	0.000957118	0.00259178
12.8686	12.6431	1.21669e-06	0.00343325
12.869	12.6426	-0.000630783	0.0040144
12.8695	12.6422	-0.000776959	0.00340786
12.87	12.6417	-0.000617978	0.00224696
12.8704	12.6412	0.00098066	0.00257374
12.8709	12.6408	-0.000122754	0.00340399
12.8714	12.6403	-0.000599572	0.00407093
12.8719	12.6398	-0.000767292	0.00338236
12.8723	12.6394	-0.000676798	0.00215199
12.8728	12.6389	0.00091517	0.00259226
12.8733	12.6384	-6.9071e-05	0.00344538
12.8737	12.638	-0.000648654	0.00424342
12.8742	12.6375	-0.00073815	0.0034208
12.8747	12.637	-0.000557892	0.00209578
12.8752	12.6365	0.000920841	0.00265217
12.8756	12.6361	-0.000177508	0.00338966
12.8761	12.6356	-0.000639451	0.00411436
12.8766	12.6351	-0.00068213	0.00330763
12.8771	12.6346	-0.000583967	0.00210152
12.8775	12.6341	0.000889363	0.00262259
12.878	12.6337	-0.000108682	0.00353413
12.8785	12.6332	-0.000681131	0.00404881
12.8789	12.6327	-0.000591172	0.00341253
12.8794	12.6323	-0.000681666	0.00212133
12.8799	12.6318	0.000887026	0.00264955
12.8804	12.6313	-0.000173637	0.00352715
12.8808	12.6309	-0.000976158	0.00406766
12.8813	12.6304	-0.000448991	0.0034412
12.8818	12.6299	-0.000625914	0.00207505
12.8822	12.6295	0.000986991	0.00270076
12.8827	12.629	-4.78652e-05	0.00363656
12.8832	12.6285	-0.000885128	0.00408027
12.8837	12.6281	-0.000628982	0.00337237
12.8841	12.6276	-0.000623382	0.00201981
12.8846	12.6271	0.000869691	0.00265561
12.8851	12.6266	-0.000107684	0.00354331
12.8856	12.6261	-0.000859588	0.00418459
12.886	12.6257	-0.000571161	0.00328207
12.8865	12.6252	-0.000562226	0.00210388
12.887	12.6247	0.000811406	0.00280147
12.8874	12.6242	-3.45247e-05	0.0036758
12.8879	12.6237	-0.000862923	0.00403045
12.8884	12.6233	-0.000517745	0.00337597
12.8889	12.6228	-0.000524148	0.00201015
12.8893	12.6223	0.000758721	0.0028258
12.8898	12.6219	-1.7189e-05	0.00364622
12.8903	12.6214	-0.00094368	0.00420917
12.8907	12.6209	-0.000428053	0.00318259
12.8912	12.6204	-0.000482735	0.00223139
12.8917	12.62	0.000758454	0.00262914
12.8922	12.6195	-6.29357e-05	0.00370555
12.8926	12.619	-0.000998897	0.00399899
12.8931	12.6186	-0.000489673	0.00324626
12.8936	12.6181	-0.000476065	0.00207758
12.8941	12.6176	0.000764125	0.00273313
12.8945	12.6171	-1.79203e-05	0.0037974
12.895	12.6167	-0.00109073	0.00389361
12.8955	12.6162	-0.000514945	0.00316579
12.8959	12.6157	-0.000422382	0.00205981
12.8964	12.6152	0.000708641	0.0027414
12.8969	12.6148	-7.52062e-05	0.00370866
12.8974	12.6143	-0.00119089	0.00401193
12.8978	12.6138	-0.000549688	0.00311114
12.8983	12.6133	-0.000352362	0.00210061
12.8988	12.6129	0.000631148	0.00292152
