# 1304     AichiSR QXAFS
# Start     : 8.9544
# End       : 9.0544
# Dir       : Backward
# Points    : 300
# ScanTime  : 1.01549
# Date      : 13.04.23 22:54
# Ring Cur. : 0.9[mA]
12.7557	12.6121	0.000632949	0.0024319
12.7562	12.6126	-2.15229e-05	0.00326494
12.7566	12.613	-2.73907e-05	0.00431144
12.7571	12.6135	-0.00119269	0.00373931
12.7576	12.614	-0.000399642	0.00259801
12.7581	12.6144	0.000654957	0.00259055
12.7585	12.6149	-1.05188e-05	0.00316595
12.759	12.6154	-7.82738e-05	0.00429153
12.7595	12.6159	-0.00123871	0.00367301
12.7599	12.6163	-0.00053822	0.00263849
12.7604	12.6168	0.000621214	0.00248763
12.7609	12.6173	3.1429e-05	0.0032424
12.7614	12.6178	-0.00031555	0.00422023
12.7618	12.6182	-0.00128238	0.00365696
12.7623	12.6187	-0.000579365	0.00248312
12.7628	12.6192	0.00067743	0.00255146
12.7632	12.6196	-7.16748e-05	0.00327772
12.7637	12.6201	-0.000337755	0.00420917
12.7642	12.6206	-0.00108533	0.00359222
12.7647	12.6211	-0.000546424	0.00257653
12.7651	12.6216	0.00062248	0.00260456
12.7656	12.622	-8.44996e-06	0.00333377
12.7661	12.6225	-0.0003677	0.00417664
12.7666	12.6229	-0.00111807	0.00360435
12.767	12.6234	-0.000611308	0.00244608
12.7675	12.6239	0.000825745	0.00248296
12.768	12.6244	-5.37329e-05	0.00333796
12.7684	12.6248	-0.000431852	0.00429775
12.7689	12.6253	-0.000956949	0.00360467
12.7694	12.6258	-0.000613911	0.00235562
12.7699	12.6263	0.000828742	0.00254786
12.7703	12.6268	-3.30621e-05	0.00340507
12.7708	12.6272	-0.000408114	0.00440969
12.7713	12.6277	-0.0009048	0.00348414
12.7717	12.6282	-0.00061211	0.00236995
12.7722	12.6287	0.000985529	0.00267692
12.7727	12.6291	-0.000155767	0.00342391
12.7732	12.6296	-0.000379435	0.00416714
12.7736	12.63	-0.000901268	0.00358427
12.7741	12.6305	-0.000620047	0.00237569
12.7746	12.631	0.000981926	0.00271166
12.7751	12.6315	-0.000204314	0.00341022
12.7755	12.632	-0.000662191	0.00418082
12.776	12.6324	-0.000875194	0.00367441
12.7765	12.6329	-0.000573497	0.00228679
12.7769	12.6333	0.000916704	0.00262152
12.7774	12.6338	-0.000123557	0.00347873
12.7779	12.6343	-0.000601373	0.00410314
12.7784	12.6347	-0.000833513	0.00355297
12.7788	12.6352	-0.000656323	0.00231186
12.7793	12.6357	0.00103741	0.00277705
12.7798	12.6362	-0.000198981	0.00354642
12.7802	12.6367	-0.000676263	0.004254
12.7807	12.6371	-0.000761888	0.00343604
12.7812	12.6376	-0.000686999	0.00227654
12.7817	12.6381	0.00102694	0.00280679
12.7821	12.6386	-0.000103082	0.00370383
12.7826	12.639	-0.000592171	0.00416418
12.7831	12.6395	-0.000702337	0.00361074
12.7836	12.6399	-0.000703604	0.00218747
12.784	12.6404	0.00103994	0.00271338
12.7845	12.6409	-5.45354e-05	0.00363393
12.785	12.6414	-0.000796702	0.0042358
12.7854	12.6418	-0.000736616	0.00346079
12.7859	12.6423	-0.000600107	0.00227809
12.7864	12.6428	0.00108649	0.00276304
12.7869	12.6432	-0.000130958	0.00362722
12.7873	12.6437	-0.000765223	0.00428857
12.7878	12.6441	-0.000686464	0.00347824
12.7883	12.6446	-0.000651722	0.00223917
12.7887	12.6451	0.0010098	0.00275869
12.7892	12.6456	-4.40662e-05	0.00367859
12.7897	12.6461	-0.000816107	0.00415001
12.7902	12.6465	-0.000592634	0.00338375
12.7906	12.647	-0.000691601	0.00219075
12.7911	12.6475	0.000912637	0.00286858
12.7916	12.648	-4.91854e-06	0.00369325
12.7921	12.6485	-0.000828377	0.00417975
12.7925	12.6489	-0.000584502	0.00332411
12.793	12.6494	-0.000636116	0.00202416
12.7935	12.6499	0.000941512	0.00266512
12.7939	12.6503	-8.74767e-05	0.00360156
12.7944	12.6508	-0.000926541	0.00405569
12.7949	12.6513	-0.000647655	0.00334
12.7954	12.6518	-0.000613109	0.00218779
12.7958	12.6522	0.00074852	0.0028054
12.7963	12.6527	-8.16089e-05	0.00376578
12.7968	12.6532	-0.00102957	0.00410051
12.7972	12.6536	-0.000559693	0.00338826
12.7977	12.6541	-0.000503745	0.00207135
12.7982	12.6546	0.000857688	0.00279697
12.7987	12.6551	-1.99891e-05	0.00364638
12.7991	12.6555	-0.00109886	0.00421589
12.7996	12.656	-0.000493472	0.00323569
12.8001	12.6565	-0.000361564	0.00219263
12.8006	12.657	0.000755654	0.00277737
12.801	12.6575	-6.4202e-05	0.00392007
12.8015	12.6579	-0.00110914	0.00413616
12.802	12.6584	-0.0004794	0.00328551
12.8024	12.6589	-0.00050214	0.00213642
12.8029	12.6593	0.000728045	0.00280974
12.8034	12.6598	-0.000154233	0.00389705
12.8039	12.6603	-0.0010976	0.00403373
12.8043	12.6607	-0.000440056	0.00326666
12.8048	12.6612	-0.000448724	0.0021864
12.8053	12.6617	0.000688969	0.00276492
12.8057	12.6622	-7.98076e-05	0.00389377
12.8062	12.6626	-0.00124818	0.00407093
12.8067	12.6631	-0.000447458	0.00315161
12.8072	12.6635	-0.000246529	0.00208069
12.8076	12.664	0.000599205	0.00287702
12.8081	12.6645	-2.99945e-05	0.00391106
12.8086	12.665	-0.0013302	0.0039962
12.8091	12.6654	-0.000377438	0.0032592
12.8095	12.6659	-0.00028614	0.00215461
12.81	12.6664	0.000414346	0.00288898
12.8105	12.6669	-1.07863e-05	0.00407217
12.8109	12.6674	-0.00129926	0.0038505
12.8114	12.6678	-0.000433118	0.00323945
12.8119	12.6683	-0.000219117	0.00219993
12.8124	12.6688	0.000579266	0.00278483
12.8128	12.6692	1.04195e-05	0.00412494
12.8133	12.6697	-0.00136421	0.00387165
12.8138	12.6701	-0.00051828	0.00310491
12.8142	12.6706	-0.000193309	0.00223917
12.8147	12.6711	0.000447822	0.00282252
12.8152	12.6716	9.37802e-05	0.00404275
12.8157	12.672	-0.00131206	0.00391836
12.8161	12.6725	-0.000400445	0.00310384
12.8166	12.673	-0.00014116	0.00207087
12.8171	12.6734	0.000436889	0.00301944
12.8176	12.6739	0.00013159	0.00400742
12.818	12.6744	-0.00149872	0.00395137
12.8185	12.6749	-0.000280005	0.00310646
12.819	12.6753	-9.44144e-05	0.00229989
12.8194	12.6758	0.000416879	0.00299018
12.8199	12.6763	0.000100647	0.00414878
12.8204	12.6768	-0.0013236	0.00381904
12.8209	12.6773	-0.000463331	0.00311581
12.8213	12.6777	-3.81273e-05	0.00233333
12.8218	12.6782	0.00024923	0.00302583
12.8223	12.6787	9.098e-05	0.00415796
12.8227	12.6791	-0.00139362	0.00385141
12.8232	12.6796	-0.000361832	0.00295282
12.8237	12.6801	7.5642e-05	0.00235889
12.8242	12.6805	0.000363998	0.00298986
12.8246	12.681	0.000165067	0.00418721
12.8251	12.6815	-0.00153247	0.00377545
12.8256	12.682	-0.000307614	0.00300124
12.8261	12.6824	7.23068e-05	0.00218624
12.8265	12.6829	0.000223351	0.00299797
12.827	12.6834	8.89112e-05	0.00428965
12.8275	12.6838	-0.00147725	0.00373529
12.8279	12.6843	-0.000405314	0.00293741
12.8284	12.6848	5.87701e-05	0.00221893
12.8289	12.6853	0.00019041	0.0028426
12.8294	12.6858	0.000150531	0.00412945
12.8298	12.6862	-0.00157334	0.00375005
12.8303	12.6867	-0.000407311	0.00288587
12.8308	12.6872	0.000191944	0.00234472
12.8312	12.6877	8.45773e-05	0.00298084
12.8317	12.6882	0.000188876	0.00413305
12.8322	12.6886	-0.00150639	0.00373325
12.8327	12.6891	-0.000384839	0.00280024
12.8331	12.6895	0.000178942	0.00222811
12.8336	12.69	0.000143861	0.00305385
12.8341	12.6905	0.000236424	0.00424965
12.8346	12.691	-0.00136548	0.00369604
12.835	12.6914	-0.000296877	0.00275992
12.8355	12.6919	0.00038474	0.00226564
12.836	12.6924	3.67618e-05	0.00293848
12.8364	12.6928	0.00019988	0.00427939
12.8369	12.6933	-0.00138829	0.00383724
12.8374	12.6938	-0.000384304	0.00274543
12.8379	12.6942	0.000317449	0.00240995
12.8383	12.6947	0.000127256	0.00311425
12.8388	12.6952	0.000131858	0.00421212
12.8393	12.6957	-0.00146778	0.00372202
12.8397	12.6961	-0.000274601	0.00274779
12.8402	12.6966	0.000339189	0.00234439
12.8407	12.6971	5.08335e-05	0.00305058
12.8412	12.6976	8.12422e-05	0.00441001
12.8416	12.698	-0.00138829	0.00369309
12.8421	12.6985	-0.000338825	0.00280024
12.8426	12.699	0.00039981	0.00242068
12.8431	12.6994	-5.91735e-06	0.00312982
12.8435	12.6999	-7.16748e-05	0.00426366
12.844	12.7004	-0.00132947	0.00370866
12.8445	12.7008	-0.000442856	0.00264831
12.8449	12.7013	0.000478035	0.00240184
12.8454	12.7018	1.93549e-05	0.0031004
12.8459	12.7023	-3.35259e-05	0.00427456
12.8464	12.7027	-0.00131773	0.00360639
12.8468	12.7032	-0.000393239	0.00261079
12.8473	12.7036	0.000505643	0.00235283
12.8478	12.7041	-0.000101548	0.00319209
12.8482	12.7046	-5.44642e-05	0.0041863
12.8487	12.7051	-0.00136475	0.00367065
12.8492	12.7056	-0.000485535	0.00258711
12.8497	12.7061	0.000661289	0.00247362
12.8501	12.7065	5.12973e-05	0.0032592
12.8506	12.707	-0.000207114	0.00428128
12.8511	12.7075	-0.00122724	0.00363344
12.8516	12.708	-0.000432655	0.00262931
12.852	12.7084	0.000715311	0.00249713
12.8525	12.7089	-7.31374e-05	0.00326511
12.853	12.7094	-0.000228123	0.00428497
12.8534	12.7098	-0.00115795	0.00366351
12.8539	12.7103	-0.000462796	0.00249665
12.8544	12.7108	0.00066416	0.00253262
12.8549	12.7113	-0.000115353	0.00315178
12.8553	12.7117	-0.000283608	0.00432283
12.8558	12.7122	-0.00121137	0.00354551
12.8563	12.7127	-0.000533351	0.00253933
12.8567	12.7131	0.000687167	0.00253745
12.8572	12.7136	-3.09933e-05	0.00323773
12.8577	12.7141	-0.000245263	0.00427579
12.8582	12.7145	-0.00117248	0.0035891
12.8586	12.715	-0.00046713	0.00245837
12.8591	12.7155	0.000816739	0.00260767
12.8596	12.716	-4.47975e-05	0.00331402
12.8601	12.7165	-0.000356696	0.00417713
12.8605	12.7169	-0.00107305	0.00349274
12.861	12.7174	-0.000668058	0.00239905
12.8615	12.7179	0.000947647	0.0025032
12.8619	12.7184	-0.000101548	0.00334
12.8624	12.7188	-0.000398643	0.00422195
12.8629	12.7193	-0.000974356	0.00354331
12.8634	12.7197	-0.000531086	0.00240823
12.8638	12.7202	0.000835412	0.00261079
12.8643	12.7207	-0.000221185	0.00352527
12.8648	12.7212	-0.00044826	0.00426211
12.8652	12.7216	-0.000928877	0.0035111
12.8657	12.7221	-0.000416782	0.00241961
12.8662	12.7226	0.000991129	0.00264037
12.8667	12.723	-0.000145298	0.00337393
12.8671	12.7235	-0.000458729	0.00420327
12.8676	12.724	-0.000836314	0.00365138
12.8681	12.7244	-0.000576298	0.00240265
12.8686	12.7249	0.000925443	0.00262431
12.869	12.7254	-5.91368e-05	0.00353773
12.8695	12.7259	-0.000500606	0.00426833
12.87	12.7263	-0.000931142	0.0036109
12.8704	12.7268	-0.000616444	0.00232571
12.8709	12.7273	0.000944847	0.00262415
12.8714	12.7278	-0.000207381	0.00352371
12.8719	12.7282	-0.000632585	0.00425153
12.8723	12.7287	-0.000847585	0.00355797
12.8728	12.7292	-0.000620243	0.00234316
12.8733	12.7296	0.00092744	0.00267897
12.8737	12.7301	-7.54737e-05	0.00358116
12.8742	12.7306	-0.000571964	0.00430135
12.8747	12.7311	-0.000822777	0.00359345
12.8752	12.7315	-0.000659658	0.00225007
12.8756	12.732	0.00108162	0.00275026
12.8761	12.7325	-0.000250863	0.00350578
12.8766	12.7329	-0.000739684	0.00427112
12.8771	12.7334	-0.000784164	0.00341301
12.8775	12.7339	-0.000769093	0.00217534
12.878	12.7344	0.000975791	0.00272755
12.8785	12.7348	-0.000173174	0.00355952
12.8789	12.7353	-0.000858251	0.00414411
12.8794	12.7358	-0.000706671	0.00347808
12.8799	12.7363	-0.000665526	0.00222205
12.8804	12.7368	0.00092744	0.0027895
12.8808	12.7372	-0.000161634	0.00368375
12.8813	12.7377	-0.000899931	0.00412854
12.8818	12.7382	-0.000712343	0.00340523
12.8822	12.7387	-0.000533351	0.00230391
12.8827	12.7391	0.000919771	0.00276599
12.8832	12.7396	-0.00015343	0.00373497
12.8837	12.7401	-0.000922671	0.00408494
12.8841	12.7405	-0.000616444	0.00328256
12.8846	12.741	-0.000613644	0.00218141
12.8851	12.7415	0.000809605	0.00269314
12.8856	12.742	-4.68663e-05	0.00359935
12.886	12.7424	-0.00103417	0.00421696
12.8865	12.7429	-0.000626913	0.00336163
12.887	12.7434	-0.00050881	0.00221721
12.8874	12.7438	0.000870957	0.00285194
12.8879	12.7443	-0.000161634	0.00373652
12.8884	12.7448	-0.000945214	0.00418008
12.8889	12.7453	-0.0004822	0.00335122
12.8893	12.7457	-0.000633316	0.00218312
12.8898	12.7462	0.000781461	0.00284867
12.8903	12.7467	-6.98735e-05	0.00375709
12.8907	12.7472	-0.0010007	0.0041083
12.8912	12.7476	-0.000485535	0.00333779
12.8917	12.7481	-0.000568093	0.00220771
12.8922	12.7486	0.000933308	0.00275058
12.8926	12.749	3.26953e-05	0.00383552
12.8931	12.7495	-0.00116075	0.00401676
12.8936	12.75	-0.000440056	0.00339965
12.8941	12.7504	-0.000513679	0.00224384
12.8945	12.7509	0.000775861	0.00283294
12.895	12.7514	6.41028e-05	0.00382306
12.8955	12.7519	-0.00123717	0.00401988
12.8959	12.7523	-0.000488335	0.00328706
12.8964	12.7528	-0.00029661	0.00236995
12.8969	12.7532	0.000728777	0.00284974
12.8974	12.7537	-2.79257e-05	0.00385141
12.8978	12.7542	-0.00114281	0.0040661
12.8983	12.7547	-0.000503941	0.00327429
12.8988	12.7551	-0.000418048	0.00220304
