# 1304     AichiSR QXAFS
# Start     : 8.9544
# End       : 9.0544
# Dir       : Forward
# Points    : 300
# ScanTime  : 1.01549
# Date      : 13.04.24 00:31
# Ring Cur. : 1[mA]
12.7557	12.7563	-0.000379703	0.00306491
12.7562	12.7558	-2.71232e-05	0.0022622
12.7566	12.7553	0.000432288	0.00298379
12.7571	12.7548	0.000202146	0.00402374
12.7576	12.7544	-0.00135915	0.0039
12.7581	12.7539	-0.000356161	0.00282515
12.7585	12.7534	-0.000107149	0.0022513
12.759	12.753	0.000456561	0.00297478
12.7595	12.7525	0.00022262	0.00423843
12.7599	12.752	-0.00146624	0.00375161
12.7604	12.7516	-0.000398108	0.00289194
12.7609	12.7511	0.000238493	0.00229178
12.7614	12.7506	0.000291641	0.00298846
12.7618	12.7501	0.0001554	0.00416418
12.7623	12.7497	-0.00138062	0.00378446
12.7628	12.7492	-0.000200247	0.00299641
12.7632	12.7488	0.000166868	0.00206775
12.7637	12.7483	0.000295975	0.00297789
12.7642	12.7478	0.000196545	0.00425744
12.7647	12.7474	-0.00153193	0.00372128
12.7651	12.7469	-0.000281539	0.00282392
12.7656	12.7464	0.000279906	0.00218468
12.7661	12.7459	0.000235425	0.00292307
12.7666	12.7455	0.000271702	0.00414845
12.767	12.745	-0.0014233	0.00363844
12.7675	12.7445	-0.000283073	0.00281753
12.768	12.744	0.000326384	0.00223262
12.7684	12.7436	0.000133927	0.00311876
12.7689	12.7431	0.000173271	0.00419999
12.7694	12.7426	-0.0013338	0.00368826
12.7699	12.7422	-0.000421115	0.00283589
12.7703	12.7417	0.000431218	0.0023466
12.7708	12.7412	7.35732e-05	0.00319349
12.7713	12.7407	9.50465e-05	0.00424777
12.7717	12.7403	-0.00138262	0.00359517
12.7722	12.7398	-0.000401907	0.00276271
12.7727	12.7393	0.000472363	0.00233071
12.7732	12.7389	8.55761e-05	0.00316112
12.7736	12.7384	9.83816e-05	0.00425432
12.7741	12.7379	-0.00135321	0.00361927
12.7746	12.7374	-0.00036383	0.00263709
12.7751	12.737	0.000461163	0.00231981
12.7755	12.7365	3.29628e-05	0.00314244
12.776	12.736	-1.7189e-05	0.00429603
12.7765	12.7355	-0.00125865	0.00362942
12.7769	12.735	-0.000362563	0.00272068
12.7774	12.7346	0.00052865	0.00239282
12.7779	12.7341	0.000144128	0.00312842
12.7784	12.7336	8.61823e-06	0.00423269
12.7788	12.7331	-0.00121443	0.00378183
12.7793	12.7327	-0.000395772	0.00272862
12.7798	12.7322	0.000605341	0.00234751
12.7802	12.7317	-8.4944e-05	0.00311645
12.7807	12.7313	-0.000145761	0.00433544
12.7812	12.7308	-0.00113594	0.00356747
12.7817	12.7303	-0.000463331	0.00259243
12.7821	12.7298	0.000664624	0.00229662
12.7826	12.7294	6.99705e-05	0.00318759
12.7831	12.7289	-7.06048e-05	0.00434569
12.7836	12.7284	-0.00125178	0.0035964
12.784	12.728	-0.000335222	0.00256891
12.7845	12.7275	0.000696638	0.0024741
12.785	12.727	-7.18366e-06	0.00339916
12.7854	12.7265	-0.000146029	0.00422909
12.7859	12.7261	-0.00106972	0.00368563
12.7864	12.7256	-0.000489138	0.00259817
12.7869	12.7251	0.000782727	0.00247206
12.7873	12.7246	6.66354e-05	0.00316472
12.7878	12.7242	-0.000131957	0.00433668
12.7883	12.7237	-0.00098923	0.00361074
12.7887	12.7232	-0.000534617	0.0026089
12.7892	12.7228	0.000917506	0.00259661
12.7897	12.7223	-8.85467e-05	0.00327445
12.7902	12.7218	-0.000302477	0.00434586
12.7906	12.7214	-0.000972822	0.00369621
12.7911	12.7209	-0.000549224	0.00258211
12.7916	12.7204	0.00088963	0.00247255
12.7921	12.72	-0.00011175	0.00327305
12.7925	12.7195	-0.000326019	0.00431816
12.793	12.719	-0.000910204	0.00356076
12.7935	12.7186	-0.000478865	0.00233505
12.7939	12.7181	0.000885296	0.00248811
12.7944	12.7176	-0.000148561	0.00339293
12.7949	12.7172	-0.000434652	0.00418721
12.7954	12.7167	-0.000796167	0.00349725
12.7958	12.7162	-0.000638452	0.00237569
12.7963	12.7157	0.00076359	0.00260611
12.7968	12.7152	-7.75425e-05	0.00346267
12.7972	12.7148	-0.00053542	0.00428063
12.7977	12.7143	-0.000795168	0.00349069
12.7982	12.7138	-0.000522347	0.00229801
12.7987	12.7133	0.00092184	0.00255629
12.7991	12.7129	-1.99891e-05	0.00339728
12.7996	12.7124	-0.000483734	0.00414223
12.8001	12.7119	-0.000770092	0.00359066
12.8006	12.7115	-0.000627181	0.00221459
12.801	12.711	0.000930775	0.00257793
12.8015	12.7105	-0.000118955	0.00331042
12.802	12.71	-0.000560692	0.00422335
12.8024	12.7096	-0.000776763	0.0035279
12.8029	12.7091	-0.000596237	0.00230612
12.8034	12.7087	0.00106602	0.00272084
12.8039	12.7082	-5.6533e-05	0.00351749
12.8043	12.7077	-0.000635385	0.0042526
12.8048	12.7072	-0.000758624	0.00351856
12.8053	12.7067	-0.000575566	0.00222639
12.8057	12.7063	0.00104248	0.00270355
12.8062	12.7058	-0.000169303	0.0035374
12.8067	12.7053	-0.000649189	0.00420327
12.8072	12.7048	-0.000680596	0.00348463
12.8076	12.7043	-0.000486338	0.00207881
12.8081	12.7039	0.00101387	0.00269282
12.8086	12.7034	-1.56552e-05	0.00360746
12.8091	12.7029	-0.000584234	0.00425105
12.8095	12.7025	-0.000594436	0.0034253
12.81	12.702	-0.00057043	0.00216444
12.8105	12.7015	0.00102181	0.0027632
12.8109	12.701	-0.000172371	0.00369776
12.8114	12.7006	-0.000789764	0.00419377
12.8119	12.7001	-0.000610041	0.00343497
12.8124	12.6996	-0.000523881	0.00212708
12.8128	12.6992	0.000920039	0.00268052
12.8133	12.6987	-0.000140161	0.00368654
12.8138	12.6983	-0.000815375	0.00413911
12.8142	12.6978	-0.000604441	0.00330403
12.8147	12.6973	-0.000557892	0.00211306
12.8152	12.6968	0.000822874	0.00288152
12.8157	12.6964	-0.000137361	0.00364531
12.8161	12.6959	-0.000997363	0.00405971
12.8166	12.6954	-0.000650188	0.00334606
12.8171	12.6949	-0.000552292	0.00205111
12.8176	12.6944	0.000921038	0.00271273
12.818	12.694	-8.80117e-05	0.00375332
12.8185	12.6935	-0.000955951	0.00407249
12.819	12.693	-0.000504476	0.00329903
12.8194	12.6926	-0.000576298	0.00208193
12.8199	12.6921	0.000928974	0.00267585
12.8204	12.6917	-0.000113819	0.00368203
12.8209	12.6912	-0.00110653	0.00409552
12.8213	12.6907	-0.000552559	0.00327633
12.8218	12.6902	-0.000461262	0.00213035
12.8223	12.6898	0.000782995	0.00287792
12.8227	12.6893	9.49192e-07	0.00377233
12.8232	12.6888	-0.00107939	0.00398358
12.8237	12.6884	-0.000459996	0.00325437
12.8242	12.6879	-0.000540021	0.00218543
12.8246	12.6874	0.000788131	0.00277565
12.8251	12.6869	2.50263e-05	0.00385206
12.8256	12.6865	-0.00118629	0.00404275
12.8261	12.686	-0.000424183	0.00324986
12.8265	12.6855	-0.000284607	0.00211741
12.827	12.685	0.000702969	0.00285768
12.8275	12.6845	-6.98735e-06	0.0037194
12.8279	12.6841	-0.00108272	0.00401939
12.8284	12.6836	-0.000312946	0.0033087
12.8289	12.6831	-0.000353895	0.00226113
12.8294	12.6827	0.000750054	0.00270527
12.8298	12.6822	0.000131858	0.00387976
12.8303	12.6817	-0.00117889	0.00387369
12.8308	12.6813	-0.000357694	0.00308982
12.8312	12.6808	-0.000366897	0.00216648
12.8317	12.6803	0.000575663	0.00270978
12.8322	12.6798	-1.41214e-05	0.00383289
12.8327	12.6794	-0.00129039	0.00398997
12.8331	12.6789	-0.000511343	0.00307098
12.8336	12.6784	-0.000152967	0.00213191
12.8341	12.678	0.000560058	0.00290595
12.8346	12.6775	0.000109118	0.00398015
12.835	12.677	-0.00127218	0.00385001
12.8355	12.6765	-0.000329354	0.00308311
12.836	12.676	-0.000124556	0.00217485
12.8364	12.6756	0.000404412	0.00284711
12.8369	12.6751	0.00011372	0.00409756
12.8374	12.6746	-0.001308	0.00387058
12.8379	12.6741	-0.000468396	0.00308606
12.8383	12.6736	-2.35917e-05	0.0022527
12.8388	12.6732	0.000392873	0.00289505
12.8393	12.6727	0.000127256	0.0041346
12.8397	12.6722	-0.00128345	0.00385592
12.8402	12.6718	-0.000293809	0.00312187
12.8407	12.6713	4.87647e-05	0.00223418
12.8412	12.6708	0.00038927	0.00302583
12.8416	12.6704	0.000179138	0.0040756
12.8421	12.6699	-0.00141436	0.00388239
12.8426	12.6694	-0.00039711	0.00294224
12.8431	12.669	-5.09328e-05	0.00228851
12.8435	12.6685	0.00034866	0.00294659
12.844	12.6681	0.000158468	0.00409617
12.8445	12.6676	-0.00148105	0.00385141
12.8449	12.6671	-0.000229122	0.00296994
12.8454	12.6666	3.62268e-05	0.00229538
12.8459	12.6661	0.00036093	0.00294487
12.8464	12.6657	8.19735e-05	0.00421728
12.8468	12.6652	-0.00149565	0.00370104
12.8473	12.6647	-0.000389637	0.00295126
12.8478	12.6642	0.000134925	0.00221517
12.8482	12.6638	0.000330522	0.00292995
12.8487	12.6633	0.00024536	0.00415484
12.8492	12.6628	-0.00138522	0.00385141
12.8497	12.6624	-0.000300943	0.00286375
12.8501	12.6619	0.000176071	0.00233989
12.8506	12.6615	0.000266565	0.00298954
12.8511	12.661	0.000118321	0.00415747
12.8516	12.6605	-0.00150712	0.00377249
12.852	12.66	-0.00033549	0.00286874
12.8525	12.6596	0.000214683	0.0021129
12.853	12.6591	0.000199613	0.0029402
12.8534	12.6586	0.000268367	0.00424171
12.8539	12.6582	-0.00147338	0.00362631
12.8544	12.6577	-0.00041498	0.00277656
12.8549	12.6572	0.000343791	0.00230064
12.8553	12.6567	0.000249961	0.00306819
12.8558	12.6563	0.000202146	0.00423269
12.8563	12.6558	-0.00147465	0.00363516
12.8567	12.6553	-0.000295076	0.00284507
12.8572	12.6548	0.000208548	0.0022636
12.8577	12.6543	0.000201414	0.00295626
12.8582	12.6539	0.000198079	0.00425776
12.8586	12.6534	-0.00136428	0.00370088
12.8591	12.6529	-0.000313481	0.00277501
12.8596	12.6525	0.000464498	0.00231653
12.8601	12.652	4.18982e-05	0.0030596
12.8605	12.6515	0.000198614	0.00424514
12.861	12.651	-0.00130519	0.00363844
12.8615	12.6506	-0.000339824	0.00273018
12.8619	12.6501	0.000552656	0.00229662
12.8624	12.6496	0.000114718	0.00312391
12.8629	12.6491	7.97084e-05	0.00418893
12.8634	12.6487	-0.00137115	0.00369121
12.8638	12.6482	-0.000408845	0.00272707
12.8643	12.6477	0.000432484	0.00249541
12.8648	12.6473	7.79071e-05	0.00310228
12.8652	12.6468	0.000119855	0.0043588
12.8657	12.6463	-0.00127145	0.00371129
12.8662	12.6458	-0.000289208	0.00266356
12.8667	12.6453	0.00059694	0.00242363
12.8671	12.6449	0.000146197	0.00306303
12.8676	12.6444	4.59646e-05	0.00424965
12.8681	12.6439	-0.00133073	0.00371006
12.8686	12.6434	-0.000544088	0.00262292
12.869	12.643	0.000546521	0.00234504
12.8695	12.6425	2.93602e-05	0.00320111
12.87	12.6421	-0.00014116	0.00426554
12.8704	12.6416	-0.00113187	0.00370989
12.8709	12.6411	-0.000416514	0.00264627
12.8714	12.6406	0.00069357	0.00245805
12.8719	12.6402	4.66959e-05	0.00325641
12.8723	12.6397	-7.82738e-05	0.00426694
12.8728	12.6392	-0.00112187	0.00359828
12.8733	12.6388	-0.000507276	0.00247066
12.8737	12.6383	0.000752586	0.00241912
12.8742	12.6378	-2.89245e-05	0.00328518
12.8747	12.6374	-0.000213053	0.00421508
12.8752	12.6369	-0.00100937	0.00361197
12.8756	12.6364	-0.000502675	0.00266544
12.8761	12.6359	0.000752051	0.00243378
12.8766	12.6355	2.7505e-06	0.00331509
12.8771	12.635	-0.000162901	0.00431069
12.8775	12.6345	-0.000912736	0.00354191
12.878	12.634	-0.000513679	0.00237258
12.8785	12.6336	0.000871759	0.00252516
12.8789	12.6331	-8.59429e-05	0.00338547
12.8794	12.6326	-0.000329087	0.00421433
12.8799	12.6322	-0.00102651	0.00343916
12.8804	12.6317	-0.000532085	0.0024814
12.8808	12.6312	0.000849484	0.00258539
12.8813	12.6308	1.19533e-05	0.0032737
12.8818	12.6303	-0.000238057	0.00429136
12.8822	12.6298	-0.000911203	0.00351249
12.8827	12.6293	-0.000544355	0.00246084
12.8832	12.6289	0.000784796	0.0026357
12.8837	12.6284	-7.71866e-06	0.00345521
12.8841	12.6279	-0.000391973	0.00418614
12.8846	12.6275	-0.000799502	0.00368326
12.8851	12.627	-0.000494274	0.002338
12.8856	12.6265	0.000940513	0.00256859
12.886	12.626	-8.98496e-06	0.0034412
12.8865	12.6255	-0.000451257	0.00412805
12.887	12.6251	-0.000799235	0.00371194
12.8874	12.6246	-0.000619512	0.00231841
12.8879	12.6241	0.000984191	0.00258399
12.8884	12.6236	-0.00014783	0.00340957
12.8889	12.6232	-0.000444123	0.00419827
12.8893	12.6227	-0.00069927	0.00355018
12.8898	12.6222	-0.000660193	0.00229334
12.8903	12.6218	0.000950982	0.00276722
12.8907	12.6213	-0.00011282	0.00346299
12.8912	12.6208	-0.000621045	0.00417492
12.8917	12.6203	-0.000773427	0.00350798
12.8922	12.6198	-0.000568628	0.00231497
12.8926	12.6194	0.000973454	0.00276427
12.8931	12.6189	-9.54132e-05	0.00346955
12.8936	12.6185	-0.000684199	0.00430693
12.8941	12.618	-0.000639184	0.00355625
12.8945	12.6175	-0.000709007	0.00236184
12.895	12.617	0.000941512	0.00275821
12.8955	12.6166	-0.000122023	0.0036014
12.8959	12.6161	-0.000762156	0.004155
12.8964	12.6156	-0.000736349	0.0034507
12.8969	12.6151	-0.00070207	0.00218779
12.8974	12.6147	0.00101233	0.0028004
12.8978	12.6142	-0.000197911	0.00365696
12.8983	12.6137	-0.000774159	0.00419081
12.8988	12.6132	-0.000629981	0.0033677
