# 1304     AichiSR QXAFS
# Start     : 8.9544
# End       : 9.0544
# Dir       : Backward
# Points    : 300
# ScanTime  : 1.01549
# Date      : 13.04.23 22:45
# Ring Cur. : 0.9[mA]
12.7557	12.612	-0.000402246	0.00304763
12.7562	12.6125	-4.37987e-05	0.00206292
12.7566	12.6129	0.000394674	0.0028885
12.7571	12.6134	0.000203947	0.00400136
12.7576	12.6139	-0.00145397	0.00375832
12.7581	12.6143	-0.000387639	0.00298879
12.7585	12.6148	6.13027e-05	0.00225318
12.759	12.6153	0.000214683	0.00291529
12.7595	12.6158	0.000114986	0.00409708
12.7599	12.6162	-0.00155674	0.00366491
12.7604	12.6167	-0.000225323	0.0029234
12.7609	12.6172	0.000118321	0.00233677
12.7614	12.6177	0.00032205	0.00290004
12.7618	12.6181	0.000171737	0.00410797
12.7623	12.6186	-0.00152913	0.00363049
12.7628	12.6191	-0.000404511	0.00281065
12.7632	12.6195	0.00022649	0.0021733
12.7637	12.62	0.000303377	0.00284023
12.7642	12.6205	0.00019708	0.00414411
12.7647	12.621	-0.00157488	0.003635
12.7651	12.6214	-0.000345959	0.0028594
12.7656	12.6219	0.00028984	0.00222172
12.7661	12.6224	0.000181207	0.00296994
12.7666	12.6228	8.83762e-05	0.00415173
12.767	12.6233	-0.00144757	0.00368064
12.7675	12.6238	-0.000330086	0.00277721
12.768	12.6243	0.000239224	0.00221222
12.7684	12.6247	0.000169936	0.00287857
12.7689	12.6252	9.4779e-05	0.00421138
12.7694	12.6257	-0.00144251	0.00359141
12.7699	12.6262	-0.000400908	0.00267945
12.7703	12.6267	0.000318251	0.00214748
12.7708	12.6271	8.2776e-05	0.00293864
12.7713	12.6276	4.72309e-05	0.00430726
12.7717	12.6281	-0.00144324	0.00346267
12.7722	12.6286	-0.000375101	0.00268724
12.7727	12.629	0.000266565	0.00227777
12.7732	12.6295	0.00011372	0.00290783
12.7736	12.6299	4.72309e-05	0.00416606
12.7741	12.6304	-0.00142483	0.00360902
12.7746	12.6309	-0.000438255	0.00263849
12.7751	12.6314	0.000287307	0.0023008
12.7755	12.6319	3.39617e-05	0.00295593
12.776	12.6323	7.71758e-05	0.0041746
12.7765	12.6328	-0.00143584	0.00351405
12.7769	12.6332	-0.000431317	0.0026402
12.7774	12.6337	0.000412545	0.0023117
12.7779	12.6342	-5.37329e-05	0.00313465
12.7784	12.6347	-1.79203e-05	0.00423596
12.7788	12.6351	-0.00128986	0.00352634
12.7793	12.6356	-0.000374102	0.00261996
12.7798	12.6361	0.000556526	0.00244796
12.7802	12.6366	3.49605e-05	0.00315629
12.7807	12.637	-8.52115e-05	0.00431906
12.7812	12.6375	-0.00128625	0.00347996
12.7817	12.638	-0.000430586	0.0024982
12.7821	12.6385	0.000569528	0.00232915
12.7826	12.6389	-8.59429e-05	0.00310351
12.7831	12.6394	-0.000113819	0.00424171
12.7836	12.6398	-0.00117709	0.0035002
12.784	12.6403	-0.000440787	0.0025091
12.7845	12.6408	0.000561859	0.00230284
12.785	12.6413	-8.00751e-05	0.00311409
12.7854	12.6417	-0.000169571	0.00415984
12.7859	12.6422	-0.00117248	0.00347996
12.7864	12.6427	-0.000468396	0.00246739
12.7869	12.6431	0.000721643	0.00243657
12.7873	12.6436	-7.16748e-05	0.00317964
12.7878	12.644	-0.000287674	0.00414206
12.7883	12.6445	-0.00100016	0.00343513
12.7887	12.645	-0.000491938	0.00252156
12.7892	12.6455	0.00072471	0.00235234
12.7897	12.646	4.69634e-05	0.00334139
12.7902	12.6464	-0.000350096	0.00422769
12.7906	12.6469	-0.00101017	0.00344743
12.7911	12.6474	-0.000520813	0.00244592
12.7916	12.6479	0.000811673	0.0024297
12.7921	12.6484	-4.14624e-05	0.00314432
12.7925	12.6488	-0.000261064	0.00427784
12.793	12.6493	-0.00103778	0.00347217
12.7935	12.6498	-0.000389173	0.0024129
12.7939	12.6502	0.000873489	0.00245338
12.7944	12.6507	-7.57412e-05	0.00324299
12.7949	12.6512	-0.000361832	0.00412682
12.7954	12.6517	-0.00102777	0.00344152
12.7958	12.6521	-0.000574229	0.00227809
12.7963	12.6526	0.000842885	0.00258432
12.7968	12.6531	-9.23456e-05	0.00327617
12.7972	12.6535	-0.000387639	0.00420622
12.7977	12.654	-0.000923009	0.00349896
12.7982	12.6545	-0.000697005	0.00233226
12.7987	12.655	0.000938979	0.00253745
12.7991	12.6554	-0.000109485	0.0033473
12.7996	12.6559	-0.000497271	0.00419017
12.8001	12.6564	-0.000924739	0.00340088
12.8006	12.6569	-0.000492473	0.0023248
12.801	12.6574	0.00100367	0.00249525
12.8015	12.6578	-6.55395e-05	0.00336819
12.802	12.6583	-0.000537952	0.0040457
12.8024	12.6588	-0.00094648	0.00354502
12.8029	12.6592	-0.00053822	0.00226236
12.8034	12.6597	0.000993661	0.00260423
12.8039	12.6602	-0.000191044	0.00338998
12.8043	12.6606	-0.000489869	0.00425727
12.8048	12.6611	-0.00070207	0.00340646
12.8053	12.6616	-0.000541822	0.00236603
12.8057	12.6621	0.000927975	0.00265143
12.8062	12.6625	-0.000155499	0.00339744
12.8067	12.663	-0.000640182	0.00419844
12.8072	12.6634	-0.000830446	0.00359533
12.8076	12.6639	-0.000604441	0.0023103
12.8081	12.6644	0.000960185	0.00260907
12.8086	12.6649	7.08442e-06	0.00341924
12.8091	12.6653	-0.000692332	0.00424138
12.8095	12.6658	-0.000685198	0.00353461
12.81	12.6663	-0.000612841	0.00222672
12.8105	12.6668	0.00100566	0.00257621
12.8109	12.6672	-0.000113819	0.00349225
12.8114	12.6677	-0.000694668	0.00411764
12.8119	12.6682	-0.000707474	0.00340727
12.8124	12.6687	-0.000632781	0.00219402
12.8128	12.6691	0.000933112	0.00268176
12.8133	12.6696	-5.55342e-05	0.00352323
12.8138	12.67	-0.000747353	0.00405815
12.8142	12.6705	-0.000718942	0.00342686
12.8147	12.671	-0.000569163	0.00212085
12.8152	12.6715	0.00100773	0.00267569
12.8157	12.6719	-0.000118153	0.00353863
12.8161	12.6724	-0.000834512	0.00427129
12.8166	12.6729	-0.000684663	0.00337065
12.8171	12.6733	-0.000671929	0.00207693
12.8176	12.6738	0.000976522	0.00273706
12.818	12.6743	-0.000152895	0.00354642
12.8185	12.6748	-0.000750688	0.0040275
12.819	12.6752	-0.000651989	0.0033341
12.8194	12.6757	-0.000706939	0.0022141
12.8199	12.6762	0.000723176	0.00258588
12.8204	12.6767	-6.11344e-05	0.00358894
12.8209	12.6772	-0.000915269	0.00404151
12.8213	12.6776	-0.000539219	0.00326822
12.8218	12.6781	-0.000690602	0.00210077
12.8223	12.6786	0.000858954	0.00278016
12.8227	12.679	-9.82133e-05	0.00372981
12.8232	12.6795	-0.00101604	0.00402906
12.8237	12.68	-0.000579365	0.00330575
12.8242	12.6805	-0.000550758	0.00207103
12.8246	12.6809	0.000860755	0.0027428
12.8251	12.6814	-0.000112285	0.003659
12.8256	12.6819	-0.000881793	0.00400554
12.8261	12.6823	-0.000619512	0.00326044
12.8265	12.6828	-0.000439254	0.00213282
12.827	12.6833	0.000876825	0.00284335
12.8275	12.6837	-7.06048e-05	0.00357461
12.8279	12.6842	-0.00108813	0.00395712
12.8284	12.6847	-0.00057043	0.00320971
12.8289	12.6852	-0.000475601	0.00201702
12.8294	12.6857	0.000843348	0.00283884
12.8298	12.6861	-4.9934e-05	0.00372718
12.8303	12.6866	-0.0011078	0.00404307
12.8308	12.6871	-0.000430318	0.00317964
12.8312	12.6876	-0.000424451	0.00215182
12.8317	12.6881	0.000712707	0.00269797
12.8322	12.6885	-3.76635e-05	0.00375881
12.8327	12.689	-0.00111447	0.00397424
12.8331	12.6895	-0.000407044	0.00322855
12.8336	12.6899	-0.000388638	0.00205406
12.8341	12.6904	0.000743383	0.00280384
12.8346	12.6909	3.16253e-05	0.00391696
12.835	12.6913	-0.00125918	0.00389205
12.8355	12.6918	-0.000410379	0.00311006
12.836	12.6923	-0.000265398	0.00209905
12.8364	12.6927	0.000609942	0.00281114
12.8369	12.6932	8.05109e-05	0.00394048
12.8374	12.6937	-0.001308	0.00395137
12.8379	12.6941	-0.000463063	0.00314136
12.8383	12.6946	-0.000259798	0.00226236
12.8388	12.6951	0.000532449	0.00277565
12.8393	12.6956	-2.35917e-05	0.00387525
12.8397	12.696	-0.00122724	0.00392458
12.8402	12.6965	-0.000429319	0.0030954
12.8407	12.697	-0.00013276	0.00220057
12.8412	12.6975	0.000517646	0.00276787
12.8416	12.6979	0.000106586	0.00399014
12.8421	12.6984	-0.00130519	0.00393049
12.8426	12.6989	-0.000357962	0.00298052
12.8431	12.6993	-0.000163971	0.00218747
12.8435	12.6998	0.000539387	0.00283498
12.844	12.7002	4.13632e-05	0.00387025
12.8445	12.7007	-0.00137728	0.00387976
12.8449	12.7012	-0.000474067	0.00312015
12.8454	12.7017	-0.000166503	0.00217362
12.8459	12.7021	0.000500239	0.00289521
12.8464	12.7026	5.08335e-05	0.00394842
12.8468	12.7031	-0.00135454	0.00387836
12.8473	12.7036	-0.000337024	0.00296044
12.8478	12.704	-0.000115888	0.00227638
12.8482	12.7045	0.000397207	0.00279557
12.8487	12.705	4.54296e-05	0.00403996
12.8492	12.7055	-0.00148005	0.00382339
12.8497	12.7059	-0.000407311	0.00304156
12.8501	12.7064	4.72309e-05	0.00213158
12.8506	12.7069	0.000418484	0.00290906
12.8511	12.7074	0.000141596	0.0040756
12.8516	12.7079	-0.00157208	0.00390155
12.852	12.7083	-0.000333421	0.00292479
12.8525	12.7088	-2.12554e-05	0.00216707
12.853	12.7093	0.00045089	0.00290922
12.8534	12.7097	0.000156934	0.0040334
12.8539	12.7102	-0.00141716	0.00378962
12.8544	12.7107	-0.000430051	0.00301477
12.8549	12.7112	0.000107049	0.00217797
12.8553	12.7116	0.00028424	0.00304623
12.8558	12.7121	0.000104784	0.0041505
12.8563	12.7126	-0.00142663	0.00366147
12.8567	12.713	-0.000310146	0.00295454
12.8572	12.7135	0.000132125	0.00219542
12.8577	12.714	0.000291641	0.00294987
12.8582	12.7144	0.000168669	0.00416902
12.8586	12.7149	-0.00161529	0.00368187
12.8591	12.7154	-0.000442321	0.00279885
12.8596	12.7159	0.000164603	0.00209266
12.8601	12.7164	0.000144128	0.00280631
12.8605	12.7168	0.000239492	0.00424981
12.861	12.7173	-0.00149232	0.00364171
12.8615	12.7178	-0.000262598	0.00278344
12.8619	12.7183	0.000217287	0.0022214
12.8624	12.7187	0.000164335	0.00304886
12.8629	12.7192	0.000207549	0.0042045
12.8634	12.7196	-0.00148032	0.0036976
12.8638	12.7201	-0.000331156	0.00275198
12.8643	12.7206	0.0002643	0.00231841
12.8648	12.7211	0.000102181	0.00299453
12.8652	12.7215	8.71099e-05	0.00412478
12.8657	12.722	-0.00137882	0.00367629
12.8662	12.7225	-0.000439789	0.00276583
12.8667	12.7229	0.000432484	0.00217845
12.8671	12.7234	0.000268902	0.00308655
12.8676	12.7239	0.000130057	0.00426957
12.8681	12.7243	-0.00139235	0.00358067
12.8686	12.7248	-0.000374566	0.00272707
12.869	12.7253	0.000424548	0.00231981
12.8695	12.7258	0.000133392	0.00307066
12.87	12.7262	2.14237e-05	0.00421851
12.8704	12.7267	-0.00129933	0.00362475
12.8709	12.7272	-0.000448456	0.00273829
12.8714	12.7277	0.000409477	0.00219681
12.8719	12.7281	6.07677e-05	0.00301821
12.8723	12.7286	0.000170203	0.00424761
12.8728	12.7291	-0.00138162	0.00359533
12.8733	12.7295	-0.000519547	0.00266077
12.8737	12.73	0.000406409	0.00231825
12.8742	12.7305	7.97084e-05	0.00309294
12.8747	12.731	8.61111e-05	0.00426243
12.8752	12.7314	-0.00127859	0.003576
12.8756	12.7319	-0.0004822	0.00263086
12.8761	12.7324	0.000469831	0.00228384
12.8766	12.7328	4.59646e-05	0.00313326
12.8771	12.7333	-1.7189e-05	0.00433249
12.8775	12.7338	-0.00123824	0.00356838
12.878	12.7343	-0.000409112	0.00266184
12.8785	12.7347	0.000620411	0.00226794
12.8789	12.7352	0.000111918	0.00316128
12.8794	12.7357	-8.34102e-05	0.00432905
12.8799	12.7362	-0.00124204	0.00355641
12.8804	12.7367	-0.000413714	0.0025513
12.8808	12.7371	0.000654957	0.00237897
12.8813	12.7376	4.77659e-05	0.00322168
12.8818	12.7381	-5.12003e-05	0.00418566
12.8822	12.7386	-0.00124745	0.00362319
12.8827	12.739	-0.000473532	0.0025236
12.8832	12.7395	0.000618877	0.00240527
12.8837	12.74	-1.38539e-05	0.00316939
12.8841	12.7404	-7.77388e-05	0.00421245
12.8846	12.7409	-0.00114614	0.00346037
12.8851	12.7414	-0.000402175	0.00257793
12.8856	12.7419	0.000676895	0.00238971
12.886	12.7423	-9.36119e-05	0.00319537
12.8865	12.7428	-0.000142961	0.00426538
12.887	12.7433	-0.00102957	0.00356387
12.8874	12.7437	-0.000592367	0.00248344
12.8879	12.7442	0.000712975	0.00248919
12.8884	12.7447	-1.51202e-05	0.00331772
12.8889	12.7452	-0.000305081	0.00426506
12.8893	12.7456	-0.000971556	0.00352946
12.8898	12.7461	-0.000479668	0.00244559
12.8903	12.7466	0.00076079	0.00241757
12.8907	12.7471	-1.46564e-05	0.00331616
12.8912	12.7475	-0.000428517	0.00417508
12.8917	12.748	-0.00109633	0.0035665
12.8922	12.7485	-0.000603442	0.00249139
12.8926	12.7489	0.000868959	0.00256687
12.8931	12.7494	-9.08118e-05	0.00340244
12.8936	12.7499	-0.00046433	0.00408355
12.8941	12.7503	-0.000970557	0.00362803
12.8945	12.7508	-0.000487069	0.00245305
12.895	12.7513	0.000818807	0.00231637
12.8955	12.7518	-0.000127891	0.00341801
12.8959	12.7522	-0.00051441	0.00420826
12.8964	12.7527	-0.000978226	0.00348865
12.8969	12.7531	-0.000548956	0.00231235
12.8974	12.7536	0.000864358	0.00254835
12.8978	12.7541	-0.000215318	0.00331353
12.8983	12.7545	-0.000534617	0.00416402
12.8988	12.755	-0.000938544	0.00348291
