# 1304     AichiSR QXAFS
# Start     : 8.9544
# End       : 9.0544
# Dir       : Backward
# Points    : 300
# ScanTime  : 1.01549
# Date      : 13.04.23 23:05
# Ring Cur. : 0.9[mA]
12.7557	12.6122	0.000157201	0.00226827
12.7562	12.6127	0.000357131	0.0029715
12.7566	12.6131	0.000269169	0.0041986
12.7571	12.6136	-0.00145091	0.00375504
12.7576	12.6141	-0.000381504	0.00288259
12.7581	12.6145	0.00019988	0.0023103
12.7585	12.615	0.000286309	0.0029343
12.759	12.6155	0.000241293	0.00433512
12.7595	12.616	-0.00139749	0.00375397
12.7599	12.6164	-0.000373032	0.00281581
12.7604	12.6169	0.000261233	0.0022636
12.7609	12.6174	0.000280637	0.00308483
12.7614	12.6179	0.000299845	0.00433512
12.7618	12.6183	-0.00127705	0.00363516
12.7623	12.6188	-0.000311413	0.00283277
12.7628	12.6193	0.000262767	0.00224991
12.7632	12.6197	0.000301379	0.00295126
12.7637	12.6202	0.000157933	0.00417836
12.7642	12.6207	-0.00146471	0.00366302
12.7647	12.6212	-0.000350828	0.00289661
12.7651	12.6217	0.00048137	0.00231358
12.7656	12.6221	0.000141328	0.00299797
12.7661	12.6226	0.000149729	0.00432545
12.7666	12.623	-0.00137655	0.00370367
12.767	12.6235	-0.000343159	0.00281114
12.7675	12.624	0.000400542	0.00232759
12.768	12.6245	8.58436e-05	0.00299034
12.7684	12.6249	0.000123458	0.00420917
12.7689	12.6254	-0.00135428	0.0036867
12.7694	12.6259	-0.000346226	0.00273534
12.7699	12.6264	0.000353261	0.0023321
12.7703	12.6269	0.000124189	0.00299313
12.7708	12.6273	0.000205748	0.0042962
12.7713	12.6278	-0.00133434	0.00368391
12.7717	12.6283	-0.000325217	0.00276459
12.7722	12.6288	0.00039034	0.00232775
12.7727	12.6292	-4.65104e-06	0.00319365
12.7732	12.6297	0.000103786	0.00423253
12.7736	12.6301	-0.0013182	0.00358846
12.7741	12.6306	-0.000337487	0.00265889
12.7746	12.6311	0.000471632	0.00245681
12.7751	12.6316	1.73573e-05	0.00307205
12.7755	12.632	0.000111116	0.00428095
12.776	12.6325	-0.00136168	0.00348479
12.7765	12.633	-0.000504476	0.00260579
12.7769	12.6334	0.00053532	0.00243298
12.7774	12.6339	8.43098e-05	0.00306352
12.7779	12.6344	4.2897e-05	0.00426399
12.7784	12.6349	-0.00131513	0.0036327
12.7788	12.6353	-0.00032115	0.0025535
12.7793	12.6358	0.000572596	0.00236233
12.7798	12.6363	9.65803e-05	0.00317169
12.7802	12.6368	1.11508e-05	0.00424482
12.7807	12.6372	-0.00123591	0.00353692
12.7812	12.6377	-0.00043492	0.002662
12.7817	12.6382	0.00054299	0.00235578
12.7821	12.6386	-2.20579e-05	0.00322463
12.7826	12.6391	2.65601e-05	0.00421245
12.7831	12.6396	-0.00121903	0.00361976
12.7836	12.64	-0.000460459	0.00259989
12.784	12.6405	0.000762057	0.00243362
12.7845	12.641	-3.43284e-05	0.0032293
12.785	12.6415	-8.10739e-05	0.00426399
12.7854	12.6419	-0.00116968	0.00359673
12.7859	12.6424	-0.00047767	0.00259768
12.7864	12.6428	0.000779463	0.00242879
12.7869	12.6433	-1.63865e-05	0.00330886
12.7873	12.6438	-0.000116619	0.00430709
12.7878	12.6442	-0.001105	0.0034639
12.7883	12.6447	-0.000423916	0.00252483
12.7887	12.6452	0.000713706	0.00244731
12.7892	12.6457	-1.87228e-05	0.00331026
12.7897	12.6462	-0.000156034	0.00428079
12.7902	12.6466	-0.00108072	0.00359812
12.7906	12.6471	-0.000478865	0.002397
12.7911	12.6476	0.000775593	0.00247206
12.7916	12.6481	-0.000222255	0.00326978
12.7921	12.6486	-0.000192311	0.00432471
12.7925	12.649	-0.000989694	0.00354207
12.793	12.6495	-0.000492206	0.00249541
12.7935	12.65	0.000778661	0.00258604
12.7939	12.6504	-0.000115353	0.00328674
12.7944	12.6509	-0.000320615	0.00431987
12.7949	12.6514	-0.000984558	0.00352806
12.7954	12.6519	-0.000451792	0.00240404
12.7958	12.6523	0.00085742	0.00256998
12.7963	12.6528	-7.88088e-05	0.00341285
12.7968	12.6533	-0.000281004	0.00418893
12.7972	12.6537	-0.000985628	0.00356264
12.7977	12.6542	-0.000504744	0.00240527
12.7982	12.6547	0.000848485	0.00251549
12.7987	12.6552	-8.95455e-05	0.00346906
12.7991	12.6556	-0.000363633	0.00414754
12.7996	12.6561	-0.000919407	0.00363581
12.8001	12.6566	-0.000465863	0.00237774
12.8006	12.6571	0.000980392	0.00255195
12.801	12.6576	-5.7068e-05	0.00343341
12.8015	12.658	-0.000433921	0.00421336
12.802	12.6585	-0.000944411	0.00358518
12.8024	12.659	-0.000501676	0.00233087
12.8029	12.6594	0.000865624	0.00255908
12.8034	12.6599	-7.90763e-05	0.00329936
12.8039	12.6604	-0.000500142	0.00423392
12.8043	12.6608	-0.000937277	0.00350905
12.8048	12.6613	-0.000633583	0.00231809
12.8053	12.6618	0.00091237	0.00248795
12.8057	12.6623	-9.72145e-05	0.00347357
12.8062	12.6627	-0.0004766	0.00430242
12.8067	12.6632	-0.000860052	0.00347062
12.8072	12.6636	-0.000544355	0.00233693
12.8076	12.6641	0.00100647	0.00259006
12.8081	12.6646	-0.00010335	0.00348758
12.8086	12.6651	-0.000512413	0.00417164
12.8091	12.6655	-0.000887928	0.00357616
12.8095	12.666	-0.0005771	0.00238085
12.81	12.6665	0.00111003	0.00273764
12.8105	12.667	-0.000100015	0.0034616
12.8109	12.6674	-0.000529284	0.00428423
12.8114	12.6679	-0.000858786	0.00359796
12.8119	12.6684	-0.000509274	0.00228867
12.8124	12.6689	0.000964252	0.00264922
12.8128	12.6693	-4.53325e-05	0.00367408
12.8133	12.6698	-0.000523149	0.00431955
12.8138	12.6702	-0.000729411	0.00348012
12.8142	12.6707	-0.00055049	0.0022672
12.8147	12.6712	0.000985457	0.00269937
12.8152	12.6717	-3.09933e-05	0.00360231
12.8157	12.6721	-0.000610844	0.00416279
12.8161	12.6726	-0.000769557	0.00353601
12.8166	12.6731	-0.000587034	0.0021864
12.8171	12.6735	0.000946381	0.00268954
12.8176	12.674	-3.50597e-05	0.00360279
12.818	12.6745	-0.000566363	0.00427972
12.8185	12.6749	-0.000798236	0.00335417
12.819	12.6754	-0.000516479	0.0021442
12.8194	12.6759	0.00101847	0.00274017
12.8199	12.6764	-0.000139894	0.00360295
12.8204	12.6769	-0.000784164	0.00420032
12.8209	12.6774	-0.00071154	0.00343948
12.8213	12.6778	-0.000632317	0.00221566
12.8218	12.6783	0.000981926	0.00273689
12.8223	12.6788	-1.56552e-05	0.00361369
12.8227	12.6792	-0.000782095	0.00413804
12.8232	12.6797	-0.000607241	0.00344694
12.8237	12.6802	-0.000678331	0.00226982
12.8242	12.6806	0.00094738	0.00276927
12.8246	12.6811	-9.7482e-05	0.0036481
12.8251	12.6816	-0.000871591	0.00414411
12.8256	12.6821	-0.00059704	0.00348323
12.8261	12.6825	-0.000646656	0.00215682
12.8265	12.683	0.000938979	0.00283916
12.827	12.6835	-0.000202512	0.00364885
12.8275	12.6839	-0.000902267	0.0041732
12.8279	12.6844	-0.000456661	0.00335278
12.8284	12.6849	-0.000525949	0.00219042
12.8289	12.6854	0.000972991	0.00281737
12.8294	12.6859	4.00969e-05	0.00374865
12.8298	12.6863	-0.000771359	0.00414239
12.8303	12.6868	-0.000391973	0.00334
12.8308	12.6873	-0.000672464	0.00224024
12.8312	12.6878	0.000785599	0.00282408
12.8317	12.6883	-7.39399e-05	0.00366474
12.8322	12.6887	-0.000878725	0.00406363
12.8327	12.6892	-0.000468931	0.00344571
12.8331	12.6896	-0.000580364	0.00211151
12.8336	12.6901	0.000843883	0.00282934
12.8341	12.6906	-1.94541e-05	0.00367924
12.8346	12.6911	-0.00097309	0.00401939
12.835	12.6915	-0.000437185	0.00324503
12.8355	12.692	-0.000432851	0.0020553
12.836	12.6925	0.000743383	0.00276148
12.8364	12.6929	-0.000144228	0.00366818
12.8369	12.6934	-0.00103851	0.00411281
12.8374	12.6938	-0.000447458	0.00334483
12.8379	12.6943	-0.000434456	0.00223778
12.8383	12.6948	0.000796068	0.002839
12.8388	12.6953	-5.55342e-05	0.00379225
12.8393	12.6958	-0.00104084	0.00398128
12.8397	12.6962	-0.000425449	0.0033786
12.8402	12.6967	-0.000364365	0.00217862
12.8407	12.6972	0.000669029	0.00275074
12.8412	12.6977	0.00014873	0.00385313
12.8416	12.6981	-0.00116842	0.0039962
12.8421	12.6986	-0.000457392	0.00329485
12.8426	12.6991	-0.00040271	0.00214216
12.8431	12.6995	0.000597939	0.0028957
12.8435	12.7	5.30987e-05	0.00391728
12.844	12.7004	-0.00115588	0.00398735
12.8445	12.7009	-0.000403441	0.00334344
12.8449	12.7014	-0.000424183	0.00215649
12.8454	12.7019	0.000732379	0.00284276
12.8459	12.7023	2.75589e-05	0.00391385
12.8464	12.7028	-0.00128292	0.00406487
12.8468	12.7033	-0.000364365	0.00313433
12.8473	12.7037	-0.000284874	0.00223729
12.8478	12.7042	0.000833682	0.00292479
12.8482	12.7047	-1.74565e-05	0.00390311
12.8487	12.7052	-0.00124024	0.00404774
12.8492	12.7057	-0.000405314	0.00327445
12.8497	12.7062	-0.000337559	0.00219869
12.8501	12.7066	0.000719377	0.00295609
12.8506	12.7071	7.69083e-05	0.00396179
12.8511	12.7076	-0.00117022	0.00395728
12.8516	12.7081	-0.000412715	0.00320315
12.852	12.7085	-0.000240394	0.0021551
12.8525	12.709	0.000621945	0.00289709
12.853	12.7095	6.33715e-05	0.00401161
12.8534	12.7099	-0.00136501	0.00397285
12.8539	12.7104	-0.000397573	0.0032125
12.8544	12.7109	-1.92578e-05	0.00221893
12.8549	12.7114	0.000496904	0.00303812
12.8553	12.7118	0.000124724	0.00401456
12.8558	12.7123	-0.0013366	0.00392802
12.8563	12.7128	-0.000375101	0.00315038
12.8567	12.7132	4.81931e-06	0.00217083
12.8572	12.7137	0.000578267	0.00296183
12.8577	12.7142	6.35311e-06	0.00414754
12.8582	12.7146	-0.00145064	0.00389205
12.8586	12.7151	-0.000340091	0.00310679
12.8591	12.7156	-6.4737e-05	0.00232292
12.8596	12.7161	0.000479568	0.00287063
12.8601	12.7166	8.61111e-05	0.00398997
12.8605	12.717	-0.00140029	0.00393999
12.861	12.7175	-0.000364365	0.00295642
12.8615	12.718	-0.000213516	0.00220492
12.8619	12.7185	0.000431753	0.00285162
12.8624	12.7189	8.55761e-05	0.00403201
12.8629	12.7194	-0.00138595	0.00388738
12.8634	12.7198	-0.000375101	0.00301214
12.8638	12.7203	0.000134194	0.00222827
12.8643	12.7208	0.000405143	0.00284244
12.8648	12.7213	0.000157201	0.00411764
12.8652	12.7217	-0.00148032	0.00386575
12.8657	12.7222	-0.000378169	0.00297461
12.8662	12.7227	0.000107584	0.00223418
12.8667	12.7231	0.000353796	0.00287932
12.8671	12.7236	0.000114986	0.00410379
12.8676	12.724	-0.00149845	0.00381592
12.8681	12.7245	-0.000349026	0.00287825
12.8686	12.725	-4.38354e-06	0.00218017
12.869	12.7255	0.000374467	0.00290595
12.8695	12.726	0.00011652	0.00426178
12.87	12.7264	-0.0013236	0.00377545
12.8704	12.7269	-0.000248526	0.00296404
12.8709	12.7274	0.000122388	0.00235717
12.8714	12.7279	0.000258629	0.00304451
12.8719	12.7283	0.00021035	0.00413133
12.8723	12.7288	-0.00150739	0.00373062
12.8728	12.7293	-0.000346226	0.0029016
12.8733	12.7297	0.000147196	0.00227514
12.8737	12.7302	0.000247696	0.00285597
12.8742	12.7307	0.000213685	0.00416574
12.8747	12.7312	-0.00151713	0.00374898
12.8752	12.7316	-0.000445924	0.00287588
12.8756	12.7321	0.00019321	0.00228056
12.8761	12.7326	0.000265834	0.00301976
12.8766	12.733	0.000276036	0.00410395
12.8771	12.7335	-0.00133814	0.00374774
12.8775	12.734	-0.000352629	0.00294052
12.878	12.7345	0.000245627	0.00234316
12.8785	12.7349	0.000259966	0.00298691
12.8789	12.7354	0.000169936	0.00416869
12.8794	12.7359	-0.00146264	0.00372455
12.8799	12.7364	-0.000295807	0.00288276
12.8804	12.7369	0.000300113	0.00229957
12.8808	12.7373	0.000115253	0.00298863
12.8813	12.7378	0.00035426	0.00421245
12.8818	12.7383	-0.001545	0.00372283
12.8822	12.7388	-0.000294541	0.00287948
12.8827	12.7392	0.000329719	0.00237881
12.8832	12.7397	0.00016487	0.00289521
12.8837	12.7402	0.00015433	0.0042948
12.8841	12.7406	-0.00146011	0.00371752
12.8846	12.7411	-0.000324753	0.00284212
12.8851	12.7416	0.000447091	0.00230596
12.8856	12.7421	8.43098e-05	0.00304
12.886	12.7425	0.000141596	0.00428407
12.8865	12.743	-0.00138242	0.00363581
12.887	12.7435	-0.000376635	0.00274468
12.8874	12.7439	0.000447091	0.00241462
12.8879	12.7444	0.000124189	0.00301837
12.8884	12.7449	0.000101717	0.00431939
12.8889	12.7453	-0.001307	0.00367097
12.8893	12.7458	-0.000419314	0.00271477
12.8898	12.7463	0.000541652	0.00236012
12.8903	12.7468	0.000108048	0.00302911
12.8907	12.7473	0.000269633	0.00432159
12.8912	12.7477	-0.00130853	0.00364171
12.8917	12.7482	-0.000400908	0.00268584
12.8922	12.7487	0.000441491	0.0023693
12.8926	12.7491	7.61058e-05	0.00305009
12.8931	12.7496	9.5314e-05	0.00423752
12.8936	12.7501	-0.00127885	0.00360795
12.8941	12.7505	-0.000353093	0.00276599
12.8945	12.751	0.00048977	0.00241011
12.895	12.7515	4.77659e-05	0.00315038
12.8955	12.752	4.00969e-05	0.00432578
12.8959	12.7524	-0.00131486	0.00365122
12.8964	12.7529	-0.00045106	0.00261513
12.8969	12.7533	0.000558328	0.00235357
12.8974	12.7538	2.78264e-05	0.00317529
12.8978	12.7543	-1.74565e-05	0.00420278
12.8983	12.7547	-0.00119576	0.00362491
12.8988	12.7552	-0.000415248	0.00254244
