# 1304     AichiSR QXAFS
# Start     : 8.9544
# End       : 9.0544
# Dir       : Forward
# Points    : 300
# ScanTime  : 1.01549
# Date      : 13.04.24 00:09
# Ring Cur. : 1[mA]
12.7557	12.7563	0.000321319	0.00305885
12.7562	12.7558	0.000269901	0.0041827
12.7566	12.7553	-0.00143304	0.00373341
12.7571	12.7548	-0.000298946	0.00287948
12.7576	12.7544	0.000205748	0.00220664
12.7581	12.7539	0.000151797	0.00297617
12.7585	12.7534	0.000259431	0.00411608
12.759	12.7529	-0.00138442	0.00369449
12.7595	12.7525	-0.000378436	0.00278918
12.7599	12.752	0.000279371	0.00221845
12.7604	12.7516	0.000165602	0.00297601
12.7609	12.7511	0.000110652	0.00421508
12.7614	12.7506	-0.00138649	0.00361976
12.7618	12.7501	-0.000390439	0.00280089
12.7623	12.7497	0.00034586	0.00224975
12.7628	12.7492	0.000140793	0.00300436
12.7632	12.7488	0.000187075	0.00428128
12.7637	12.7483	-0.00139669	0.00361401
12.7642	12.7478	-0.000331423	0.00282204
12.7647	12.7474	0.000367065	0.00225163
12.7651	12.7469	4.36283e-05	0.00302846
12.7656	12.7464	0.000129058	0.00428562
12.7661	12.7459	-0.0013384	0.00366474
12.7666	12.7454	-0.000338022	0.00269749
12.767	12.745	0.00045196	0.00224524
12.7675	12.7445	0.00021702	0.00303828
12.768	12.744	0.000221086	0.00420901
12.7684	12.7435	-0.00140029	0.00347545
12.7689	12.7431	-0.00040938	0.00267741
12.7694	12.7426	0.000533252	0.00226687
12.7699	12.7422	7.20393e-05	0.00315145
12.7703	12.7417	3.82956e-05	0.00428235
12.7708	12.7412	-0.00120876	0.00362164
12.7713	12.7407	-0.000341625	0.00270028
12.7717	12.7403	0.000591269	0.0023394
12.7722	12.7398	-3.38473e-06	0.00316735
12.7727	12.7393	0.000146928	0.00433233
12.7732	12.7389	-0.00130953	0.00357321
12.7736	12.7384	-0.00042165	0.00270699
12.7741	12.7379	0.000676895	0.00226392
12.7746	12.7374	8.15097e-05	0.00320455
12.7751	12.737	7.88692e-06	0.00424015
12.7755	12.7365	-0.00126558	0.00355313
12.776	12.736	-0.000350025	0.00276164
12.7765	12.7355	0.000660023	0.00243051
12.7769	12.735	-2.23254e-05	0.00308687
12.7774	12.7346	3.13578e-05	0.00423564
12.7779	12.7341	-0.00120189	0.00358411
12.7784	12.7336	-0.000420117	0.00257793
12.7788	12.7331	0.000624014	0.0023947
12.7793	12.7327	0.000113452	0.00321824
12.7798	12.7322	-6.09381e-05	0.00425384
12.7802	12.7317	-0.00112547	0.00366818
12.7807	12.7313	-0.000414713	0.00257825
12.7812	12.7308	0.000710442	0.00236791
12.7817	12.7303	5.67013e-05	0.00324068
12.7821	12.7298	-0.00011282	0.00422802
12.7826	12.7294	-0.00103598	0.00369481
12.7831	12.7289	-0.00043212	0.00252016
12.7836	12.7284	0.000680765	0.00244157
12.784	12.728	-6.65383e-05	0.00311613
12.7845	12.7275	-0.000191579	0.00425744
12.785	12.727	-0.00107612	0.00352871
12.7854	12.7265	-0.000450258	0.00250664
12.7859	12.7261	0.000746718	0.00253138
12.7864	12.7256	-7.7275e-05	0.00330124
12.7869	12.7251	-0.000112018	0.00424187
12.7873	12.7246	-0.0010099	0.00361353
12.7878	12.7242	-0.000378971	0.00249402
12.7883	12.7237	0.000874559	0.00243577
12.7887	12.7232	1.68223e-05	0.00338343
12.7892	12.7228	-0.000212518	0.0043393
12.7897	12.7223	-0.00101017	0.00356977
12.7902	12.7218	-0.000350828	0.00251238
12.7906	12.7214	0.000864822	0.00261562
12.7911	12.7209	2.11562e-05	0.00321856
12.7916	12.7204	-0.00027107	0.00426817
12.7921	12.72	-0.000978958	0.00353134
12.7925	12.7195	-0.000498608	0.002426
12.793	12.719	0.00091624	0.00249869
12.7935	12.7186	-5.06653e-05	0.00338998
12.7939	12.7181	-0.000241392	0.00418647
12.7944	12.7176	-0.00093701	0.00361353
12.7949	12.7172	-0.000471999	0.00238971
12.7954	12.7167	0.000848217	0.00264439
12.7958	12.7162	-6.45235e-06	0.00343153
12.7963	12.7157	-0.000490939	0.00422163
12.7968	12.7152	-0.000906601	0.00356977
12.7972	12.7148	-0.000471267	0.00229678
12.7977	12.7143	0.000964252	0.00261546
12.7982	12.7138	-0.000228587	0.00346906
12.7987	12.7133	-0.000514678	0.00415033
12.7991	12.7129	-0.000860587	0.00340539
12.7996	12.7124	-0.000496005	0.0025018
12.8001	12.7119	0.00101747	0.00263382
12.8006	12.7115	-7.52062e-05	0.00336319
12.801	12.711	-0.000492741	0.00425341
12.8015	12.7105	-0.000883862	0.00343948
12.802	12.71	-0.000706671	0.00231047
12.8024	12.7096	0.000965785	0.0026402
12.8029	12.7091	-0.000129692	0.00344833
12.8034	12.7086	-0.000468663	0.0043116
12.8039	12.7082	-0.000867257	0.00348554
12.8043	12.7077	-0.000502211	0.0022359
12.8048	12.7072	0.00100773	0.00266995
12.8053	12.7067	-0.000140696	0.00348044
12.8057	12.7063	-0.000695935	0.00418786
12.8062	12.7058	-0.000824043	0.00337098
12.8067	12.7053	-0.000591368	0.00229538
12.8072	12.7048	0.00102487	0.00262652
12.8076	12.7043	-0.000138895	0.00346235
12.8081	12.7039	-0.000556091	0.00406438
12.8086	12.7034	-0.000787963	0.00343325
12.8091	12.7029	-0.00062158	0.00216911
12.8095	12.7024	0.00088296	0.00273206
12.81	12.702	-0.000171105	0.00350487
12.8105	12.7015	-0.000637917	0.00412403
12.8109	12.701	-0.000833781	0.00349725
12.8114	12.7006	-0.000630516	0.00222827
12.8119	12.7001	0.000985992	0.00273174
12.8124	12.6996	-5.09328e-05	0.00354223
12.8128	12.6992	-0.000697736	0.00402095
12.8133	12.6987	-0.000745284	0.00346079
12.8138	12.6982	-0.000670127	0.00211478
12.8142	12.6978	0.000884226	0.00265717
12.8147	12.6973	-4.5065e-05	0.00350471
12.8152	12.6968	-0.000802302	0.00412215
12.8157	12.6964	-0.000783897	0.00339728
12.8161	12.6959	-0.000625647	0.00215478
12.8166	12.6954	0.000958651	0.00260423
12.8171	12.6949	-0.000109217	0.00358722
12.8176	12.6944	-0.000819174	0.00410814
12.818	12.694	-0.000481933	0.00338236
12.8185	12.6935	-0.00067653	0.00210995
12.819	12.693	0.00096739	0.00270978
12.8194	12.6926	-0.000127356	0.00354191
12.8199	12.6921	-0.000829911	0.00412231
12.8204	12.6917	-0.000681399	0.00337114
12.8209	12.6912	-0.000587837	0.00223155
12.8213	12.6907	0.000914171	0.00284851
12.8218	12.6902	-4.38354e-06	0.00354191
12.8223	12.6898	-0.000865723	0.00406315
12.8227	12.6893	-0.000695203	0.00334016
12.8232	12.6888	-0.000599572	0.0021056
12.8237	12.6884	0.000893964	0.00278435
12.8242	12.6879	-5.21991e-05	0.00373931
12.8246	12.6874	-0.000849583	0.00408027
12.8251	12.6869	-0.000637186	0.00329329
12.8256	12.6865	-0.000613109	0.00208455
12.8261	12.686	0.000797067	0.00276336
12.8265	12.6855	4.77659e-05	0.00362147
12.827	12.685	-0.000903534	0.00407265
12.8275	12.6845	-0.000549955	0.00333893
12.8279	12.6841	-0.000569163	0.00222188
12.8284	12.6836	0.000887561	0.00259243
12.8289	12.6831	-3.6326e-05	0.00367908
12.8294	12.6827	-0.00106692	0.00401488
12.8298	12.6822	-0.000418583	0.00316906
12.8303	12.6817	-0.000443391	0.00213626
12.8308	12.6813	0.000781729	0.00287685
12.8312	12.6808	-4.38354e-06	0.00372439
12.8317	12.6803	-0.00103364	0.00408355
12.8322	12.6798	-0.000480203	0.00331026
12.8327	12.6794	-0.000437452	0.00214469
12.8331	12.6789	0.00074465	0.00281597
12.8336	12.6784	-8.28752e-05	0.00380298
12.8341	12.6779	-0.0011336	0.0039073
12.8346	12.6775	-0.000381236	0.00315612
12.835	12.677	-0.000454859	0.00213658
12.8355	12.6765	0.000771259	0.00277377
12.836	12.676	9.07125e-05	0.00382355
12.8364	12.6756	-0.00104265	0.004018
12.8369	12.6751	-0.000423184	0.00315194
12.8374	12.6746	-0.000318885	0.00204735
12.8379	12.6741	0.000745185	0.00283916
12.8383	12.6736	-3.50597e-05	0.0038061
12.8388	12.6732	-0.00113314	0.00392147
12.8393	12.6727	-0.000502407	0.00318898
12.8397	12.6722	-0.000262866	0.00207693
12.8402	12.6718	0.000697904	0.00285613
12.8407	12.6713	3.018e-06	0.00372997
12.8412	12.6708	-0.0012295	0.00385313
12.8416	12.6704	-0.000300943	0.00305713
12.8421	12.6699	-0.00025393	0.00207897
12.8426	12.6694	0.000613545	0.00277844
12.8431	12.669	0.000165869	0.00373931
12.8435	12.6685	-0.0013108	0.00394622
12.844	12.668	-0.000432655	0.00310835
12.8445	12.6676	-0.000223789	0.00214109
12.8449	12.6671	0.000551925	0.00282859
12.8454	12.6666	6.08561e-06	0.0039744
12.8459	12.6661	-0.00131793	0.00388083
12.8464	12.6657	-0.000554824	0.00307876
12.8468	12.6652	-0.000187977	0.00218141
12.8473	12.6647	0.000587737	0.0027596
12.8478	12.6642	-8.5479e-05	0.00395056
12.8482	12.6638	-0.00136114	0.00381888
12.8487	12.6633	-0.000369501	0.00305852
12.8492	12.6628	-8.59429e-05	0.00208987
12.8497	12.6624	0.000502308	0.00274854
12.8501	12.6619	7.76396e-05	0.00400194
12.8506	12.6614	-0.0014251	0.00379257
12.8511	12.661	-0.000484804	0.00294331
12.8516	12.6605	-6.08669e-05	0.00213314
12.852	12.66	0.00051251	0.002863
12.8525	12.6595	9.5849e-05	0.00396506
12.853	12.6591	-0.00141536	0.00384051
12.8534	12.6586	-0.000386105	0.00298658
12.8539	12.6582	-2.11842e-06	0.00213674
12.8544	12.6577	0.000462893	0.00284539
12.8549	12.6572	5.12973e-05	0.00395605
12.8553	12.6567	-0.0014251	0.00372562
12.8558	12.6562	-0.000375833	0.00291717
12.8563	12.6558	4.55181e-06	0.00209234
12.8567	12.6553	0.000392338	0.00296527
12.8572	12.6548	0.000211616	0.00406626
12.8577	12.6543	-0.00143837	0.00382011
12.8582	12.6539	-0.0003789	0.00296806
12.8586	12.6534	-5.14678e-05	0.00217673
12.8591	12.6529	0.000362999	0.00279697
12.8596	12.6525	0.000150531	0.00406561
12.8601	12.652	-0.00136321	0.00376471
12.8605	12.6515	-0.000327286	0.00303845
12.861	12.651	0.000148997	0.00222156
12.8615	12.6505	0.00034973	0.00291062
12.8619	12.6501	0.000173003	0.0041514
12.8624	12.6496	-0.00157695	0.00379568
12.8629	12.6491	-0.000425984	0.00295094
12.8634	12.6487	0.000171737	0.00220894
12.8638	12.6482	0.00035533	0.0028594
12.8643	12.6477	0.000205748	0.00423892
12.8648	12.6472	-0.00147238	0.00373325
12.8652	12.6468	-0.000285873	0.00285269
12.8657	12.6463	9.81141e-05	0.00232432
12.8662	12.6458	0.000300309	0.00306427
12.8667	12.6453	0.000187806	0.00419033
12.8671	12.6448	-0.00142663	0.00369293
12.8676	12.6444	-0.000256731	0.00286391
12.8681	12.6439	0.000238689	0.00218296
12.8686	12.6434	0.000184275	0.00290627
12.869	12.643	0.000227221	0.0042453
12.8695	12.6425	-0.00146931	0.00366646
12.87	12.6421	-0.000445656	0.00287046
12.8704	12.6416	0.000209815	0.00220164
12.8709	12.6411	0.000268367	0.00308982
12.8714	12.6406	0.000186344	0.00417943
12.8719	12.6402	-0.00138395	0.00370989
12.8723	12.6397	-0.000424183	0.00286203
12.8728	12.6392	0.000185274	0.00222
12.8733	12.6388	0.0001638	0.00299502
12.8737	12.6383	9.83816e-05	0.00418754
12.8742	12.6378	-0.00136935	0.00365213
12.8747	12.6374	-0.000420384	0.0027945
12.8752	12.6369	0.000265103	0.00229178
12.8756	12.6364	0.000105052	0.0029919
12.8761	12.6359	0.000168937	0.00423548
12.8766	12.6355	-0.00129546	0.00368326
12.8771	12.635	-0.000403512	0.00293881
12.8775	12.6345	0.00031645	0.00231047
12.878	12.634	0.000122923	0.00310695
12.8785	12.6336	0.000203947	0.00423253
12.8789	12.6331	-0.00142997	0.00366507
12.8794	12.6326	-0.0003705	0.00267429
12.8799	12.6322	0.000370864	0.00234144
12.8804	12.6317	0.000125455	0.00302959
12.8808	12.6312	1.68223e-05	0.00422147
12.8813	12.6307	-0.00127372	0.00359329
12.8818	12.6303	-0.000424718	0.00268831
12.8822	12.6298	0.000478231	0.00217378
12.8827	12.6293	-2.33242e-05	0.00312982
12.8832	12.6289	8.35073e-05	0.00424965
12.8837	12.6284	-0.00134914	0.00373389
12.8841	12.6279	-0.000399642	-0.00474836
12.8846	12.6275	0.000427419	0.00789481
12.8851	12.627	4.2897e-05	0.00317513
12.8856	12.6265	9.07125e-05	0.00417025
12.886	12.626	-0.00126865	0.00357165
12.8865	12.6255	-0.000326019	0.00271322
12.887	12.6251	0.000498438	0.00235578
12.8874	12.6246	-1.7189e-05	0.00319102
12.8879	12.6241	-3.07258e-05	0.00427612
12.8884	12.6236	-0.00128472	0.00356838
12.8889	12.6232	-0.000454395	0.00273657
12.8893	12.6227	0.000609942	0.00225802
12.8898	12.6222	9.81141e-05	0.0032606
12.8903	12.6218	-2.61243e-05	0.00423392
12.8907	12.6213	-0.00121363	0.00358132
12.8912	12.6208	-0.000406312	0.00259661
12.8917	12.6203	0.000528383	0.0023693
12.8922	12.6198	-1.13213e-05	0.00316391
12.8926	12.6194	-0.000134026	0.00423441
12.8931	12.6189	-0.0012195	0.0036554
12.8936	12.6185	-0.000454592	0.00270109
12.8941	12.618	0.000569528	0.00250787
12.8945	12.6175	-1.31226e-05	0.00316128
12.895	12.617	-8.36777e-05	0.00428374
12.8955	12.6165	-0.00107712	0.00368203
12.8959	12.6161	-0.000541287	0.00263677
12.8964	12.6156	0.000648555	0.00250148
12.8969	12.6151	-1.41214e-05	0.00322356
12.8974	12.6146	-0.000163971	0.0042948
12.8978	12.6142	-0.00103624	0.00350315
12.8983	12.6137	-0.00049934	0.00253868
12.8988	12.6132	0.000662092	0.00243969
