# 1304     AichiSR QXAFS
# Start     : 8.9544
# End       : 9.0544
# Dir       : Forward
# Points    : 300
# ScanTime  : 1.01549
# Date      : 13.04.24 00:24
# Ring Cur. : 0.9[mA]
12.7557	12.7563	-0.000203047	0.0021624
12.7562	12.7558	0.000494371	0.00299002
12.7566	12.7553	-1.15176e-05	0.00407576
12.7571	12.7548	-0.00138469	0.00382838
12.7576	12.7544	-0.000413714	0.00310711
12.7581	12.7539	-9.00805e-05	0.00211757
12.7585	12.7534	0.000334855	0.00295577
12.759	12.753	0.000117786	0.00398047
12.7595	12.7525	-0.00131233	0.00381265
12.7599	12.752	-0.000407044	0.00304451
12.7604	12.7516	-8.77442e-05	0.00215059
12.7609	12.7511	0.000420017	0.00288743
12.7614	12.7506	6.13027e-05	0.00400103
12.7618	12.7502	-0.00149332	0.00380396
12.7623	12.7497	-0.000376903	0.00296667
12.7628	12.7492	-3.91973e-06	0.00219714
12.7632	12.7488	0.000393408	0.00289972
12.7637	12.7483	0.000167135	0.00410862
12.7642	12.7478	-0.0014371	0.00388303
12.7647	12.7474	-0.000353895	0.0029416
12.7651	12.7469	5.4365e-05	0.00218312
12.7656	12.7464	0.000304179	0.00292995
12.7661	12.7459	0.000274769	0.00411404
12.7666	12.7455	-0.0015424	0.00362582
12.767	12.745	-0.000477599	0.00294143
12.7675	12.7445	3.0359e-05	0.00216584
12.768	12.744	0.000346395	0.00287342
12.7684	12.7436	0.00035813	0.00408741
12.7689	12.7431	-0.00150306	0.00375725
12.7694	12.7426	-0.000304011	0.00295421
12.7699	12.7422	0.000134925	0.00221845
12.7703	12.7417	0.000265103	0.00291513
12.7708	12.7412	0.000122388	0.00412494
12.7713	12.7407	-0.00158462	0.00369964
12.7717	12.7403	-0.000370767	0.00286407
12.7722	12.7398	0.000168669	0.0023466
12.7727	12.7393	9.65803e-05	0.00297945
12.7732	12.7389	0.00022929	0.00428063
12.7736	12.7384	-0.00144044	0.0037085
12.7741	12.7379	-0.000285605	0.00282966
12.7746	12.7375	0.000285239	0.00231095
12.7751	12.737	0.000178675	0.00300141
12.7755	12.7365	0.000245895	0.00431348
12.776	12.736	-0.00141843	0.00374849
12.7765	12.7355	-0.000361029	0.00275198
12.7769	12.7351	0.00018481	0.00226908
12.7774	12.7346	5.79676e-05	0.00312252
12.7779	12.7341	0.000125455	0.0042045
12.7784	12.7336	-0.00144964	0.00373292
12.7788	12.7331	-0.000376903	0.00274296
12.7793	12.7327	0.000449624	0.00237151
12.7798	12.7322	7.61942e-06	0.00310335
12.7802	12.7317	3.92944e-05	0.00429013
12.7807	12.7313	-0.00128579	0.00355313
12.7812	12.7308	-0.000486338	0.00267118
12.7817	12.7303	0.000412081	0.00231202
12.7821	12.7298	4.06319e-05	0.00309573
12.7826	12.7294	7.97084e-05	0.0042766
12.7831	12.7289	-0.00137882	0.00360386
12.7836	12.7284	-0.000441322	0.00263709
12.784	12.728	0.000593338	0.00237709
12.7845	12.7275	-1.31593e-06	0.0030909
12.785	12.727	0.000199613	0.0043225
12.7854	12.7266	-0.00131973	0.00360123
12.7859	12.7261	-0.00035056	0.00263086
12.7864	12.7256	0.00051638	0.00238053
12.7869	12.7251	2.88252e-05	0.00311269
12.7873	12.7246	-5.86018e-05	0.00417229
12.7878	12.7242	-0.00128779	0.0035964
12.7883	12.7237	-0.000420652	0.00260939
12.7887	12.7232	0.000568529	0.00236963
12.7892	12.7228	-6.18485e-06	0.00322618
12.7897	12.7223	-0.000117422	0.00427612
12.7902	12.7219	-0.00126965	0.0035869
12.7906	12.7214	-0.000399642	0.00254056
12.7911	12.7209	0.00062915	0.00235406
12.7916	12.7204	7.88692e-06	0.00320471
12.7921	12.72	-5.40004e-05	0.00428439
12.7925	12.7195	-0.0012129	0.00358722
12.793	12.719	-0.000507276	0.0024333
12.7935	12.7186	0.000571864	0.0024814
12.7939	12.7181	-4.55289e-05	0.00314088
12.7944	12.7176	-0.000146029	0.00425416
12.7949	12.7172	-0.00127625	0.00352307
12.7954	12.7167	-0.000596505	0.00252934
12.7958	12.7162	0.000661557	0.00240077
12.7963	12.7157	5.26348e-05	0.00320643
12.7968	12.7152	-0.000285605	0.00426817
12.7972	12.7148	-0.00110166	0.00355608
12.7977	12.7143	-0.000557892	0.00243002
12.7982	12.7138	0.000855886	0.00240544
12.7987	12.7133	-0.000158299	0.00320004
12.7991	12.7129	-0.000348759	0.0042853
12.7996	12.7124	-0.000981026	0.00357305
12.8001	12.712	-0.000586499	0.00234751
12.8006	12.7115	0.000822678	0.0023684
12.801	12.711	-2.81932e-05	0.00326232
12.8015	12.7105	-0.000274601	0.00416902
12.802	12.7101	-0.00114794	0.00336786
12.8024	12.7096	-0.000483538	0.00243378
12.8029	12.7091	0.000800402	0.00257122
12.8034	12.7087	-0.000198713	0.00322463
12.8039	12.7082	-0.000473532	0.00421991
12.8043	12.7077	-0.000922474	0.0035111
12.8048	12.7072	-0.000663992	0.00236979
12.8053	12.7068	0.000842082	0.00258711
12.8057	12.7063	-0.000137629	0.00334746
12.8062	12.7058	-0.000422649	0.00416762
12.8067	12.7053	-0.000879528	0.00351609
12.8072	12.7048	-0.000606242	0.00228367
12.8076	12.7043	0.000954852	0.00250368
12.8081	12.7039	-6.22044e-05	0.00346906
12.8086	12.7034	-0.000577564	0.00417009
12.8091	12.7029	-0.000883594	0.00348447
12.8095	12.7025	-0.000599305	0.00225458
12.81	12.702	0.000946648	0.00255753
12.8105	12.7015	-5.01303e-05	0.00340523
12.8109	12.7011	-0.000559693	0.00417959
12.8114	12.7006	-0.000800768	0.00348135
12.8119	12.7001	-0.000625647	0.00229629
12.8124	12.6996	0.000906502	0.00263398
12.8128	12.6992	-0.000159833	0.00340834
12.8133	12.6987	-0.000641984	0.00405102
12.8138	12.6983	-0.000759891	0.00349134
12.8142	12.6978	-0.000669396	0.00226236
12.8147	12.6973	0.000976522	0.00267118
12.8152	12.6968	-0.000149899	0.00349069
12.8157	12.6964	-0.000640985	0.00419344
12.8161	12.6959	-0.000666792	0.0034194
12.8166	12.6954	-0.000691601	0.0022105
12.8171	12.6949	0.00102207	0.00270576
12.8176	12.6944	-9.97471e-05	0.00357568
12.818	12.694	-0.000830713	0.004219
12.8185	12.6935	-0.000836849	0.00342998
12.819	12.693	-0.000664527	0.00216846
12.8194	12.6926	0.000933575	0.00275353
12.8199	12.6921	-0.00017057	0.00364499
12.8204	12.6917	-0.000745819	0.00424171
12.8209	12.6912	-0.000690334	0.00350315
12.8213	12.6907	-0.000685733	0.00211167
12.8218	12.6902	0.000904968	0.00279541
12.8223	12.6898	-0.000155499	0.00357133
12.8227	12.6893	-0.000852918	0.00404806
12.8232	12.6888	-0.000627716	0.00329576
12.8237	12.6884	-0.000681399	0.00215789
12.8242	12.6879	0.00091517	0.00269051
12.8246	12.6874	-0.000153965	0.00353101
12.8251	12.687	-0.000889729	0.00410035
12.8256	12.6865	-0.000580631	0.00334467
12.8261	12.686	-0.000665526	0.00223466
12.8265	12.6855	0.000939711	0.00276583
12.827	12.685	-0.000113284	0.00368686
12.8275	12.6845	-0.000933478	0.00418008
12.8279	12.6841	-0.000502407	0.00321577
12.8284	12.6836	-0.000613109	0.00215371
12.8289	12.6831	0.000824408	0.00277066
12.8294	12.6827	-0.000155232	0.00378323
12.8298	12.6822	-0.00100557	0.00412231
12.8303	12.6817	-0.000468931	0.00335589
12.8308	12.6813	-0.000457392	0.00210888
12.8312	12.6808	0.000717309	0.00273501
12.8317	12.6803	-1.97216e-05	0.00377684
12.8322	12.6798	-0.0011096	0.00413804
12.8327	12.6794	-0.00053822	0.0033509
12.8331	12.6789	-0.000402246	0.00211011
12.8336	12.6784	0.000733449	0.00267913
12.8341	12.678	-4.14624e-05	0.00377824
12.8346	12.6775	-0.00115048	0.00414862
12.835	12.677	-0.000471	0.00318914
12.8355	12.6765	-0.000383038	0.00212052
12.836	12.676	0.000656224	0.00270248
12.8364	12.6756	-8.31427e-05	0.00384878
12.8369	12.6751	-0.00121597	0.00398079
12.8374	12.6746	-0.0004738	0.00315645
12.8379	12.6741	-0.000414445	0.00207586
12.8383	12.6736	0.000672097	0.00280147
12.8388	12.6732	-5.12003e-05	0.00389951
12.8393	12.6727	-0.00121697	0.00397956
12.8397	12.6723	-0.000371035	0.00318259
12.8402	12.6718	-0.000271337	0.00223418
12.8407	12.6713	0.000561859	0.00281253
12.8412	12.6708	0.000134658	0.00386386
12.8416	12.6704	-0.00117555	0.00388083
12.8421	12.6699	-0.000481469	0.00315178
12.8426	12.6694	-0.000204046	0.00217394
12.8431	12.669	0.000642152	0.0028644
12.8435	12.6685	-9.82133e-05	0.00399309
12.844	12.6681	-0.00137602	0.00388582
12.8445	12.6676	-0.000388638	0.00312515
12.8449	12.6671	-0.000170302	0.00219886
12.8454	12.6666	0.000535588	0.00280991
12.8459	12.6662	6.13027e-05	0.0040166
12.8464	12.6657	-0.00137648	0.00381404
12.8468	12.6652	-0.000389637	0.00309949
12.8473	12.6647	-0.00016497	0.00218296
12.8478	12.6642	0.000459361	0.00285817
12.8482	12.6638	-1.7189e-05	0.00407823
12.8487	12.6633	-0.0014205	0.00387058
12.8492	12.6628	-0.000439521	0.00302722
12.8497	12.6624	-0.000122023	0.002166
12.8501	12.6619	0.000409477	0.00298814
12.8506	12.6615	9.5314e-05	0.00395277
12.8511	12.661	-0.00140489	0.00382371
12.8516	12.6605	-0.000339824	0.00307705
12.852	12.66	-7.45116e-06	0.00215494
12.8525	12.6596	0.000362732	0.00297322
12.853	12.6591	0.000156399	0.00402997
12.8534	12.6586	-0.0015174	0.00374914
12.8539	12.6582	-0.000376368	0.0030473
12.8544	12.6577	-5.42679e-05	0.0022935
12.8549	12.6572	0.000316182	0.00296651
12.8553	12.6567	0.00013266	0.00403684
12.8558	12.6563	-0.00152426	0.00389533
12.8563	12.6558	-0.000364365	0.00288555
12.8567	12.6553	7.23068e-05	0.00217051
12.8572	12.6548	0.000331253	0.00295937
12.8577	12.6543	0.000133124	0.00421605
12.8582	12.6539	-0.00161349	0.00367022
12.8586	12.6534	-0.000335222	0.00291717
12.8591	12.6529	0.000100914	0.00221689
12.8596	12.6525	0.000203679	0.0029343
12.8601	12.652	0.000111918	0.00411469
12.8605	12.6515	-0.0015286	0.00377684
12.861	12.6511	-0.000278471	0.00294069
12.8615	12.6506	9.89166e-05	0.00213937
12.8619	12.6501	0.00023209	0.00297478
12.8624	12.6496	0.000200612	0.00421556
12.8629	12.6492	-0.00161349	0.00373341
12.8634	12.6487	-0.000331156	0.00287046
12.8638	12.6482	0.000147731	0.00220771
12.8643	12.6477	0.000193478	0.0029184
12.8648	12.6473	0.000198614	0.00410535
12.8652	12.6468	-0.00144477	0.0036604
12.8657	12.6463	-0.000337755	0.00286703
12.8662	12.6458	0.000229023	0.00230129
12.8667	12.6453	0.000100183	0.0029125
12.8671	12.6449	0.000180672	0.004214
12.8676	12.6444	-0.00136448	0.00363328
12.8681	12.6439	-0.000433118	0.00279761
12.8686	12.6434	0.000350461	0.0022345
12.869	12.643	0.000176873	0.00298084
12.8695	12.6425	0.000214148	0.00424826
12.87	12.6421	-0.00140336	0.00368874
12.8704	12.6416	-0.000447458	0.00265701
12.8709	12.6411	0.000376803	0.0023693
12.8714	12.6407	8.73774e-05	0.00302985
12.8719	12.6402	6.2569e-05	0.00419581
12.8723	12.6397	-0.00139082	0.00354814
12.8728	12.6392	-0.000387639	0.00279541
12.8733	12.6388	0.000376536	0.00240806
12.8737	12.6383	-2.63918e-05	0.00304467
12.8742	12.6379	0.000118589	0.00422974
12.8747	12.6374	-0.00129959	0.00364171
12.8752	12.6369	-0.000362563	0.00271756
12.8756	12.6364	0.000506178	0.00233022
12.8761	12.636	2.42238e-05	0.00315457
12.8766	12.6355	8.71099e-05	0.00437404
12.8771	12.635	-0.0012369	0.00364794
12.8775	12.6345	-0.000405242	0.00262496
12.878	12.634	0.000496173	0.0022949
12.8785	12.6336	6.02327e-05	0.00311441
12.8789	12.6331	-4.42625e-05	0.00432299
12.8794	12.6326	-0.00128679	0.00357477
12.8799	12.6322	-0.000393774	0.00267601
12.8804	12.6317	0.000568529	0.00238847
12.8808	12.6312	9.17113e-05	0.00305058
12.8813	12.6308	-0.000111286	0.00423392
12.8818	12.6303	-0.00123284	0.00358878
12.8822	12.6298	-0.000433118	0.00247657
12.8827	12.6293	0.000532717	0.00245386
12.8832	12.6289	-7.11398e-05	0.003139
12.8837	12.6284	-0.000102083	0.00423564
12.8841	12.628	-0.00124177	0.00358239
12.8846	12.6275	-0.000439057	0.00245944
12.8851	12.627	0.000662092	0.00252499
12.8856	12.6265	-7.71866e-06	0.00329796
12.886	12.626	-0.000233188	0.00430521
12.8865	12.6256	-0.00103364	0.00354986
12.887	12.6251	-0.000525949	0.00250926
12.8874	12.6246	0.000570331	0.00236201
12.8879	12.6241	-1.85092e-06	0.00324986
12.8884	12.6236	-0.00030888	0.00414829
12.8889	12.6232	-0.00112827	0.00357321
12.8893	12.6227	-0.000470465	0.00244296
12.8898	12.6222	0.000672293	0.00235078
12.8903	12.6218	-2.94595e-05	0.00322511
12.8907	12.6213	-0.000267735	0.00435413
12.8912	12.6208	-0.00108632	0.00345612
12.8917	12.6203	-0.000550223	0.00226564
12.8922	12.6199	0.000907037	0.0026897
12.8926	12.6194	-2.63918e-05	0.00332443
12.8931	12.6189	-0.000386837	0.00436454
12.8936	12.6185	-0.00103878	0.00351421
12.8941	12.618	-0.000579365	0.00235218
12.8945	12.6175	0.000855084	0.00260874
12.895	12.617	-8.34102e-05	0.00333549
12.8955	12.6166	-0.000338825	0.0041505
12.8959	12.6161	-0.000957484	0.00343825
12.8964	12.6156	-0.000553023	0.00226392
12.8969	12.6151	0.000922108	0.0025885
12.8974	12.6147	-0.000124288	0.00334467
12.8978	12.6142	-0.000615178	0.00418877
12.8983	12.6137	-0.000981758	0.00346111
12.8988	12.6132	-0.000661192	0.00230784
