# 1304     AichiSR QXAFS
# Start     : 8.9544
# End       : 9.0544
# Dir       : Forward
# Points    : 300
# ScanTime  : 1.01549
# Date      : 13.04.23 23:01
# Ring Cur. : 1[mA]
12.7557	12.7561	-0.000354627	0.00294192
12.7562	12.7556	0.000218286	0.00221861
12.7566	12.7551	0.000322585	0.0028812
12.7571	12.7546	0.000200879	0.00414223
12.7576	12.7542	-0.00153933	0.00367801
12.7581	12.7537	-0.000373835	0.00285318
12.7585	12.7532	0.000139527	0.00227482
12.759	12.7528	0.000245895	0.00298036
12.7595	12.7523	0.00030038	0.00420466
12.7599	12.7519	-0.00149845	0.00369916
12.7604	12.7514	-0.000308416	0.00287358
12.7609	12.7509	0.000298312	0.00233054
12.7614	12.7504	0.000183009	0.00307409
12.7618	12.75	0.000324119	0.00434102
12.7623	12.7495	-0.00149232	0.00381265
12.7628	12.749	-0.000367432	0.00271993
12.7632	12.7486	0.000325385	0.00238815
12.7637	12.7481	0.000146928	0.00312735
12.7642	12.7476	0.000226954	0.00428128
12.7647	12.7472	-0.00146164	0.00365213
12.7651	12.7467	-0.000355429	0.00282467
12.7656	12.7462	0.000336924	0.00233194
12.7661	12.7457	0.000187342	0.00308622
12.7666	12.7453	0.000165869	0.00421229
12.767	12.7448	-0.00138008	0.00370727
12.7675	12.7443	-0.000311216	0.00279369
12.768	12.7438	0.000421284	0.0022658
12.7684	12.7434	0.000101913	0.0030968
12.7689	12.7429	0.000133124	0.00422072
12.7694	12.7424	-0.0013246	0.00381249
12.7699	12.742	-0.000384037	0.00280196
12.7703	12.7415	0.000579801	0.00235422
12.7708	12.741	-2.84607e-05	0.0032315
12.7713	12.7405	0.000161803	0.00435273
12.7717	12.7401	-0.00136375	0.00369932
12.7722	12.7396	-0.000395843	0.00283728
12.7727	12.7391	0.00059307	0.00233119
12.7732	12.7387	3.74931e-05	0.00330403
12.7736	12.7382	-1.95253e-05	0.00436798
12.7741	12.7377	-0.00128065	0.00363344
12.7746	12.7373	-0.000325021	0.00273518
12.7751	12.7368	0.000486702	0.00253794
12.7755	12.7363	0.00012039	0.00317964
12.776	12.7358	-3.53272e-05	0.00443009
12.7765	12.7353	-0.00121977	0.00366523
12.7769	12.7348	-0.000523613	0.0027042
12.7774	12.7344	0.000622944	0.00245993
12.7779	12.7339	-3.89298e-05	0.00325904
12.7784	12.7334	-0.000109485	0.00432299
12.7788	12.7329	-0.0012323	0.0035687
12.7793	12.7325	-0.000483003	0.00262931
12.7798	12.732	0.000540653	0.00249139
12.7802	12.7316	-7.42074e-05	0.003217
12.7807	12.7311	-7.75425e-05	0.00429169
12.7812	12.7306	-0.00125051	0.00365835
12.7817	12.7301	-0.000455127	0.00256531
12.7821	12.7296	0.000696638	0.00245493
12.7826	12.7292	-8.71746e-06	0.00322806
12.7831	12.7287	-0.000133223	0.00423097
12.7836	12.7283	-0.00115281	0.0036168
12.784	12.7278	-0.000441857	0.00258899
12.7845	12.7273	0.000654155	0.00245338
12.785	12.7268	4.08282e-05	0.00333533
12.7854	12.7264	-0.000233188	0.00424686
12.7859	12.7259	-0.00108732	0.00362287
12.7864	12.7254	-0.000537685	0.00247861
12.7869	12.7249	0.000821875	0.00251877
12.7873	12.7245	1.21669e-06	0.00325609
12.7878	12.724	-0.000420848	0.00423892
12.7883	12.7235	-0.00106692	0.00349741
12.7887	12.723	-0.000573497	0.00258743
12.7892	12.7226	0.000911835	0.00259162
12.7897	12.7221	-8.08064e-05	0.00340711
12.7902	12.7217	-0.000453593	0.00429341
12.7906	12.7212	-0.000889997	0.00367629
12.7911	12.7207	-0.00054489	0.00244248
12.7916	12.7202	0.000921305	0.00270511
12.7921	12.7198	-7.36724e-05	0.00349429
12.7925	12.7193	-0.000468931	0.00426227
12.793	12.7188	-0.000855522	0.00355313
12.7935	12.7184	-0.000557624	0.00244248
12.7939	12.7179	0.000899832	0.00256268
12.7944	12.7174	-8.36777e-05	0.00347029
12.7949	12.717	-0.000469198	0.00419811
12.7954	12.7165	-0.000846515	0.00351577
12.7958	12.716	-0.000508275	0.00231497
12.7963	12.7155	0.000970922	0.00268428
12.7968	12.715	-2.94595e-05	0.00341596
12.7972	12.7146	-0.00053715	0.00411699
12.7977	12.7141	-0.000786233	0.00357272
12.7982	12.7136	-0.000560692	0.0023044
12.7987	12.7131	0.000958384	0.00272395
12.7991	12.7127	-0.00010895	0.00359189
12.7996	12.7122	-0.000582433	0.00426055
12.8001	12.7118	-0.000797701	0.0035519
12.8006	12.7113	-0.000657857	0.0023139
12.801	12.7108	0.00107782	0.00271322
12.8015	12.7103	-8.16089e-05	0.00344447
12.802	12.7099	-0.000737615	0.00423736
12.8024	12.7094	-0.00077316	0.00347824
12.8029	12.7089	-0.000634047	0.00226811
12.8034	12.7085	0.0010044	0.00269019
12.8039	12.708	-0.000101281	0.00357305
12.8043	12.7075	-0.000809704	0.00417991
12.8048	12.707	-0.000716142	0.00348168
12.8053	12.7066	-0.000683932	0.00217845
12.8057	12.7061	0.000850019	0.00286047
12.8062	12.7056	-0.000245263	0.00362598
12.8067	12.7051	-0.000843715	0.00403464
12.8072	12.7046	-0.000637382	0.00351217
12.8076	12.7041	-0.000657322	0.00211027
12.8081	12.7037	0.000889363	0.00268986
12.8086	12.7032	-9.20781e-05	0.00369588
12.8091	12.7027	-0.000825309	0.00416918
12.8095	12.7023	-0.000673462	0.00349037
12.81	12.7018	-0.000651454	0.0022155
12.8105	12.7013	0.000919771	0.00277909
12.8109	12.7008	-6.4202e-05	0.00361508
12.8114	12.7004	-0.000785163	0.00402283
12.8119	12.6999	-0.000669325	0.00341924
12.8124	12.6994	-0.000656056	0.00217829
12.8128	12.699	0.000990861	0.00276894
12.8133	12.6985	-0.000128158	0.00363393
12.8138	12.6981	-0.000882863	0.00418319
12.8142	12.6976	-0.000565828	0.00334139
12.8147	12.6971	-0.000475066	0.00224057
12.8152	12.6966	0.000824943	0.00275616
12.8157	12.6962	-0.00013276	0.00370039
12.8161	12.6957	-0.000974356	0.00423097
12.8166	12.6952	-0.00056763	0.00331976
12.8171	12.6947	-0.000636384	0.00222983
12.8176	12.6942	0.000732112	0.00276615
12.818	12.6938	7.53745e-05	0.00383863
12.8185	12.6933	-0.0010063	0.00408199
12.819	12.6928	-0.000522614	0.00322495
12.8194	12.6924	-0.000399107	0.00222516
12.8199	12.6919	0.000807803	0.00277844
12.8204	12.6915	0.00011092	0.00382403
12.8209	12.691	-0.0011124	0.00404635
12.8213	12.6905	-0.000504476	0.00322914
12.8218	12.69	-0.000499875	0.00217083
12.8223	12.6896	0.000811673	0.00282531
12.8227	12.6891	-7.92726e-05	0.00389017
12.8232	12.6886	-0.00115642	0.00408183
12.8237	12.6882	-0.000382503	0.00323274
12.8242	12.6877	-0.000380434	0.00225114
12.8246	12.6872	0.000686632	0.0028921
12.8251	12.6867	3.5228e-05	0.00394933
12.8256	12.6863	-0.00118376	0.00404151
12.8261	12.6858	-0.000412715	0.00325346
12.8265	12.6853	-0.000325752	0.00228899
12.827	12.6848	0.000773792	0.0027523
12.8275	12.6843	0.000109386	0.00387385
12.8279	12.6839	-0.00117175	0.00401381
12.8284	12.6834	-0.000375101	0.00325936
12.8289	12.6829	-0.000241125	0.00228974
12.8294	12.6825	0.000562929	0.00293692
12.8298	12.682	7.84421e-05	0.00394622
12.8303	12.6815	-0.00118882	0.0040071
12.8308	12.681	-0.000470732	0.00325904
12.8312	12.6806	-0.000292008	0.00221361
12.8317	12.6801	0.000588736	0.00295282
12.8322	12.6796	5.87701e-05	0.00404291
12.8327	12.6792	-0.00123537	0.00392942
12.8331	12.6787	-0.000400908	0.00321856
12.8336	12.6782	-0.000187442	0.00225302
12.8341	12.6778	0.000505376	0.00289177
12.8346	12.6773	6.74379e-05	0.00393065
12.835	12.6768	-0.00136528	0.00395605
12.8355	12.6763	-0.000344158	0.00305418
12.836	12.6758	-0.00011002	0.00218919
12.8364	12.6754	0.00054859	0.00292463
12.8369	12.6749	1.22208e-05	0.00410363
12.8374	12.6744	-0.00138108	0.00391025
12.8379	12.6739	-0.000332886	0.00302427
12.8383	12.6734	-6.65383e-05	0.00216428
12.8388	12.673	0.000486435	0.00294954
12.8393	12.6725	2.80939e-05	0.00414083
12.8397	12.6721	-0.00147391	0.00380036
12.8402	12.6716	-0.000330621	0.00309433
12.8407	12.6711	-8.21439e-05	0.00227605
12.8412	12.6706	0.000378533	0.00306803
12.8416	12.6702	8.05109e-05	0.00416402
12.8421	12.6697	-0.00150712	0.00382822
12.8426	12.6692	-0.00034216	0.00287218
12.8431	12.6688	6.3104e-05	0.00230891
12.8435	12.6683	0.000337121	0.00295765
12.844	12.6679	0.000221621	0.0040879
12.8445	12.6674	-0.00148772	0.00378323
12.8449	12.6669	-0.000294077	0.00291996
12.8454	12.6664	0.000172807	0.00222188
12.8459	12.666	0.000316985	0.00297166
12.8464	12.6655	0.000158735	0.00411125
12.8468	12.665	-0.00151433	0.00381764
12.8473	12.6645	-0.000349026	0.00309294
12.8478	12.664	0.00019708	0.00230859
12.8482	12.6636	0.000382136	0.00294954
12.8487	12.6631	0.000188341	0.00431005
12.8492	12.6626	-0.00141923	0.00375676
12.8497	12.6622	-0.000342356	0.0029497
12.8501	12.6617	0.000180208	0.00227482
12.8506	12.6612	0.00022542	0.00300682
12.8511	12.6608	0.000275768	0.00426866
12.8516	12.6603	-0.00149772	0.00372734
12.852	12.6598	-0.000409647	0.00286563
12.8525	12.6594	0.000256631	0.00225705
12.853	12.6589	7.66408e-05	0.00310695
12.8534	12.6584	0.00029544	0.00432857
12.8539	12.658	-0.00144684	0.00378602
12.8544	12.6575	-0.000379168	0.00283015
12.8549	12.657	0.000368332	0.00231326
12.8553	12.6565	0.000182206	0.00303828
12.8558	12.6561	0.000155132	0.00431472
12.8563	12.6556	-0.00138622	0.00372202
12.8567	12.6551	-0.00034109	0.0028885
12.8572	12.6546	0.000318982	0.00240667
12.8577	12.6541	-4.29962e-05	0.00318775
12.8582	12.6537	0.000248427	0.00433029
12.8586	12.6532	-0.00139009	0.00375332
12.8591	12.6527	-0.000315283	0.00267274
12.8596	12.6523	0.000318786	0.00248189
12.8601	12.6518	0.000110652	0.00310695
12.8605	12.6513	9.57778e-05	0.00429652
12.861	12.6508	-0.00130239	0.00362115
12.8615	12.6503	-0.000389904	0.00271461
12.8619	12.6499	0.000506374	0.00237209
12.8624	12.6494	-2.84973e-06	0.00300608
12.8629	12.6489	1.78211e-05	0.00436593
12.8634	12.6485	-0.00138469	0.00376562
12.8638	12.648	-0.000441322	0.00273469
12.8643	12.6475	0.000518449	0.00235078
12.8648	12.647	0.000101717	0.00324396
12.8652	12.6466	-1.15888e-05	0.00436733
12.8657	12.6461	-0.00128372	0.00359501
12.8662	12.6456	-0.000390707	0.00271027
12.8667	12.6451	0.000585134	0.00242551
12.8671	12.6446	6.81692e-06	0.00327649
12.8676	12.6442	-8.16089e-05	0.0042839
12.8681	12.6437	-0.00114975	0.00372997
12.8686	12.6432	-0.000383038	0.00264299
12.869	12.6428	0.000573398	0.00247378
12.8695	12.6423	5.69688e-05	0.00329018
12.87	12.6419	-0.000101548	0.0042213
12.8704	12.6414	-0.00124204	0.00368965
12.8709	12.6409	-0.000292811	0.00267011
12.8714	12.6404	0.000678428	0.00244108
12.8719	12.64	2.72914e-05	0.0032111
12.8723	12.6395	-0.000124556	0.00437265
12.8728	12.639	-0.00113054	0.00366491
12.8733	12.6386	-0.000479204	0.0025345
12.8737	12.6381	0.000696103	0.00252859
12.8742	12.6376	7.05055e-05	0.00323134
12.8747	12.6372	-0.000334223	0.00425137
12.8752	12.6367	-0.00103137	0.00357788
12.8756	12.6362	-0.000477599	0.00258915
12.8761	12.6357	0.000796068	0.00256654
12.8766	12.6353	1.32197e-05	0.00335852
12.8771	12.6348	-0.000340091	0.00429775
12.8775	12.6343	-0.00112421	0.00357026
12.878	12.6338	-0.000503674	0.00253729
12.8785	12.6334	0.000804736	0.0025068
12.8789	12.6329	6.59041e-05	0.00332599
12.8794	12.6324	-0.00031168	0.0041251
12.8799	12.632	-0.00098536	0.00359034
12.8804	12.6315	-0.000524416	0.0024996
12.8808	12.631	0.000783797	0.00256096
12.8813	12.6305	-0.000114086	0.00336491
12.8818	12.6301	-0.000370232	0.00421868
12.8822	12.6296	-0.000851384	0.00358411
12.8827	12.6291	-0.000675264	0.0024478
12.8832	12.6287	0.0008991	0.00257449
12.8837	12.6282	-8.62104e-05	0.00338982
12.8841	12.6277	-0.000391973	0.00422302
12.8846	12.6273	-0.000931142	0.00345693
12.8851	12.6268	-0.00049934	0.00222188
12.8856	12.6263	0.000875291	0.00257481
12.886	12.6258	-8.41415e-05	0.00341924
12.8865	12.6253	-0.000501408	0.00425727
12.887	12.6249	-0.000822777	0.00353633
12.8874	12.6244	-0.000589103	0.00246272
12.8879	12.6239	0.000962522	0.00267618
12.8884	12.6234	-1.97216e-05	0.00352478
12.8889	12.623	-0.000615178	0.00425072
12.8893	12.6225	-0.000799235	0.00348168
12.8898	12.622	-0.000589834	0.00235841
12.8903	12.6216	0.000922108	0.00273673
12.8907	12.6211	-0.000119223	0.00361943
12.8912	12.6206	-0.000694668	0.00423629
12.8917	12.6201	-0.000730213	0.00348742
12.8922	12.6196	-0.000640985	0.00229597
12.8926	12.6192	0.000942047	0.0027392
12.8931	12.6187	4.72309e-05	0.00359517
12.8936	12.6183	-0.000615445	0.00423145
12.8941	12.6178	-0.000639719	0.00345537
12.8945	12.6173	-0.000699537	0.00229785
12.895	12.6168	0.000939711	0.00267258
12.8955	12.6164	-0.000101548	0.0035737
12.8959	12.6159	-0.000666525	0.00417648
12.8964	12.6154	-0.000687267	0.00348914
12.8969	12.6149	-0.000656858	0.00222811
12.8974	12.6144	0.000995998	0.00277844
12.8978	12.614	-0.00015063	0.00367473
12.8983	12.6135	-0.000775693	0.00413476
12.8988	12.613	-0.000561958	0.00346471
