# 1304     AichiSR QXAFS
# Start     : 8.9544
# End       : 9.0544
# Dir       : Forward
# Points    : 300
# ScanTime  : 1.01549
# Date      : 13.04.23 23:08
# Ring Cur. : 0.8[mA]
12.7557	12.7561	9.15323e-06	0.00218124
12.7562	12.7557	0.000515113	0.00292963
12.7566	12.7552	0.000291909	0.00416354
12.7571	12.7547	-0.00134914	0.00386263
12.7576	12.7542	-0.000261332	0.00301665
12.7581	12.7538	-9.41469e-05	0.00220164
12.7585	12.7533	0.000452495	0.00284383
12.759	12.7528	0.000172272	0.00414099
12.7595	12.7524	-0.00136781	0.00385313
12.7599	12.7519	-0.00038944	0.00303485
12.7604	12.7514	0.00024256	0.00218141
12.7609	12.751	0.000379603	0.00299002
12.7614	12.7505	0.000102181	0.00417229
12.7618	12.75	-0.00138929	0.00378307
12.7623	12.7496	-0.000361832	0.00297585
12.7628	12.7491	0.000127791	0.00230064
12.7632	12.7486	0.000318519	0.0029606
12.7637	12.7482	0.000139259	0.00411436
12.7642	12.7477	-0.00146444	0.00378167
12.7647	12.7472	-0.000314284	0.00288152
12.7651	12.7468	0.000137726	0.00226424
12.7656	12.7463	0.000420749	0.00294487
12.7661	12.7458	0.000196278	0.00426227
12.7666	12.7453	-0.00144991	0.00373652
12.767	12.7448	-0.000317619	0.00279246
12.7675	12.7444	0.000285506	0.00229055
12.768	12.7439	0.000247963	0.00311908
12.7684	12.7434	0.000170471	0.0042045
12.7689	12.743	-0.00124484	0.00373185
12.7694	12.7425	-0.000278471	0.00287653
12.7699	12.742	0.000331788	0.00228072
12.7703	12.7416	0.00018481	0.00297724
12.7708	12.7411	0.000121389	0.00433684
12.7713	12.7406	-0.00133894	0.00377512
12.7717	12.7401	-0.000289672	0.00283916
12.7722	12.7397	0.000293175	0.00226687
12.7727	12.7392	0.000148462	0.00310786
12.7732	12.7387	7.0238e-05	0.00416574
12.7736	12.7383	-0.00128319	0.00359189
12.7741	12.7378	-0.000272604	0.00276288
12.7746	12.7373	0.000439422	0.00226548
12.7751	12.7368	0.000163337	0.00300231
12.7755	12.7364	0.000282439	0.00424203
12.776	12.7359	-0.0014445	0.0036241
12.7765	12.7354	-0.000320419	0.00267913
12.7769	12.7349	0.000388004	0.00233505
12.7774	12.7344	0.000156934	0.00310335
12.7779	12.734	8.35785e-05	0.00432111
12.7784	12.7335	-0.00134147	0.00361229
12.7788	12.733	-0.000302745	0.00271117
12.7793	12.7325	0.000547591	0.00244747
12.7798	12.7321	0.000104249	0.00310958
12.7802	12.7316	-1.85092e-06	0.00422211
12.7807	12.7311	-0.00126938	0.0036277
12.7812	12.7306	-0.000492473	0.00266044
12.7817	12.7302	0.00052198	0.00245386
12.7821	12.7297	-3.17116e-07	0.00319881
12.7826	12.7292	3.70293e-05	0.00422179
12.7831	12.7288	-0.00120396	0.00364327
12.7836	12.7283	-0.00039711	0.00253245
12.784	12.7278	0.000657758	0.00240544
12.7845	12.7274	-5.83343e-05	0.00317374
12.785	12.7269	-6.83397e-05	0.00430538
12.7854	12.7264	-0.00112574	0.00358148
12.7859	12.7259	-0.00024446	0.00259629
12.7864	12.7255	0.000725709	0.00255302
12.7869	12.725	-8.16089e-05	0.00311924
12.7873	12.7245	-9.7482e-05	0.00434741
12.7878	12.724	-0.00107125	0.00361648
12.7883	12.7236	-0.000434385	0.00258072
12.7887	12.7231	0.000707838	0.00241118
12.7892	12.7226	-6.19369e-05	0.00330247
12.7897	12.7222	-0.000177508	0.00424981
12.7902	12.7217	-0.000931945	0.0035782
12.7906	12.7212	-0.000455127	0.00250647
12.7911	12.7208	0.000726244	0.00248935
12.7916	12.7203	7.79071e-05	0.00325781
12.7921	12.7198	-0.000348028	0.00425244
12.7925	12.7194	-0.00105231	0.00361632
12.793	12.7189	-0.000278204	0.00260252
12.7935	12.7184	0.000781729	0.00268503
12.7939	12.718	4.69634e-05	0.0033073
12.7944	12.7175	-0.000290474	0.00429292
12.7949	12.717	-0.000935012	0.00364343
12.7954	12.7165	-0.000431585	0.00243174
12.7958	12.7161	0.000886562	0.0024369
12.7963	12.7156	-3.76635e-05	0.00330682
12.7968	12.7151	-0.000258996	0.00420869
12.7972	12.7146	-0.000961818	0.00359501
12.7977	12.7141	-0.000513946	0.00242928
12.7982	12.7137	0.00091904	0.00255302
12.7987	12.7132	-0.000175439	0.00329313
12.7991	12.7127	-0.000345959	0.00424514
12.7996	12.7123	-0.000894598	0.0035891
12.8001	12.7118	-0.000554289	0.00238708
12.8006	12.7113	0.00088016	0.0026008
12.801	12.7109	-0.00010895	0.00343432
12.8015	12.7104	-0.000457196	0.00423892
12.802	12.7099	-0.00087646	0.00346299
12.8024	12.7094	-0.000529017	0.00227171
12.8029	12.709	0.0009996	0.00257916
12.8034	12.7085	-9.46107e-05	0.00342391
12.8039	12.708	-0.000472801	0.00420933
12.8043	12.7076	-0.000793099	0.00360107
12.8048	12.7071	-0.000575566	0.00226736
12.8053	12.7066	0.000945115	0.00264955
12.8057	12.7061	-8.9813e-05	0.00338654
12.8062	12.7056	-0.000625647	0.00419999
12.8067	12.7052	-0.00074762	0.00351265
12.8072	12.7047	-0.00064712	0.00237741
12.8076	12.7042	0.000973989	0.00278623
12.8081	12.7037	2.82902e-05	0.00349913
12.8086	12.7033	-0.000657322	0.00417074
12.8091	12.7028	-0.000746818	0.00347045
12.8095	12.7023	-0.000662191	0.00227745
12.81	12.7019	0.00101314	0.00263586
12.8105	12.7014	-0.000184374	0.00359656
12.8109	12.7009	-0.000669592	0.00416107
12.8114	12.7004	-0.000791566	0.00349585
12.8119	12.7	-0.000591636	0.00225302
12.8124	12.6995	0.000995998	0.00272927
12.8128	12.699	4.72309e-05	0.0036663
12.8133	12.6986	-0.000672464	0.00410411
12.8138	12.6981	-0.000698271	0.00340399
12.8142	12.6976	-0.000556091	0.00228088
12.8147	12.6972	0.00103281	0.00275509
12.8152	12.6967	-8.90105e-05	0.00361385
12.8157	12.6962	-0.000794633	0.00426538
12.8161	12.6957	-0.000451792	0.00343685
12.8166	12.6953	-0.000582165	0.0022155
12.8171	12.6948	0.00112024	0.00270371
12.8176	12.6943	-2.33242e-05	0.00366925
12.818	12.6938	-0.000814305	0.00403013
12.8185	12.6934	-0.000485072	0.00344104
12.819	12.6929	-0.000484269	0.00212863
12.8194	12.6924	0.00099853	0.00269609
12.8199	12.692	-0.00010615	0.0036758
12.8204	12.6915	-0.000846783	0.00414518
12.8209	12.691	-0.000530283	0.00337253
12.8213	12.6906	-0.000387104	0.00215231
12.8218	12.6901	0.000877092	0.00279262
12.8223	12.6896	8.15097e-05	0.00374071
12.8227	12.6892	-0.00106765	0.00406749
12.8232	12.6887	-0.000560228	0.00332255
12.8237	12.6882	-0.000451257	0.00213921
12.8242	12.6878	0.000970922	0.002839
12.8246	12.6873	-6.75372e-05	0.00356977
12.8251	12.6868	-0.00103904	0.00399604
12.8256	12.6863	-0.000332155	0.00330542
12.8261	12.6858	-0.000527216	0.00219714
12.8265	12.6854	0.000881961	0.00289489
12.827	12.6849	6.3104e-05	0.00373776
12.8275	12.6844	-0.0010976	0.00406143
12.8279	12.6839	-0.000367165	0.0032075
12.8284	12.6835	-0.000353093	0.00228105
12.8289	12.683	0.000723711	0.00285146
12.8294	12.6825	-2.02566e-05	0.00377045
12.8298	12.6821	-0.00113974	0.00405864
12.8303	12.6816	-0.000394506	0.00314415
12.8308	12.6811	-0.000365898	0.00216444
12.8312	12.6806	0.000726511	0.00292324
12.8317	12.6802	9.81141e-05	0.00397161
12.8322	12.6797	-0.00114948	0.00400866
12.8327	12.6792	-0.000384037	0.00319848
12.8331	12.6788	-0.000246261	0.00219837
12.8336	12.6783	0.000674362	0.00294487
12.8341	12.6778	7.35192e-06	0.00389533
12.8346	12.6773	-0.00123824	0.00408511
12.835	12.6769	-0.000493008	0.0032497
12.8355	12.6764	-0.000200782	0.00229195
12.836	12.6759	0.00062141	0.00286203
12.8364	12.6754	0.000155667	0.00393285
12.8369	12.6749	-0.00119576	0.00405332
12.8374	12.6744	-0.000377901	0.003139
12.8379	12.674	-0.000252129	0.00224491
12.8383	12.6735	0.000677162	0.00287153
12.8388	12.673	0.000168402	0.0039976
12.8393	12.6726	-0.00134274	0.00397113
12.8397	12.6721	-0.000373835	0.00317185
12.8402	12.6717	-0.000151165	0.00224212
12.8407	12.6712	0.000541188	0.00280695
12.8412	12.6707	0.000132393	0.00401644
12.8416	12.6702	-0.00138622	0.00394294
12.8421	12.6698	-0.000383769	0.00296012
12.8426	12.6693	-4.42625e-05	0.00222983
12.8431	12.6688	0.000554992	0.00301944
12.8435	12.6684	9.96479e-05	0.00412526
12.844	12.6679	-0.00145424	0.00388942
12.8445	12.6674	-0.000340822	0.00305943
12.8449	12.667	-0.000125358	0.00213905
12.8454	12.6665	0.00042255	0.00295593
12.8459	12.666	7.20393e-05	0.0041033
12.8464	12.6655	-0.00135888	0.00377561
12.8468	12.665	-0.000346226	0.00295749
12.8473	12.6646	4.10957e-05	0.0021456
12.8478	12.6641	0.000446823	0.00287776
12.8482	12.6636	0.00013266	0.00409896
12.8487	12.6632	-0.00138135	0.00375332
12.8492	12.6627	-0.000279006	0.00297166
12.8497	12.6622	0.000182474	0.00224459
12.8501	12.6618	0.000387005	0.00288775
12.8506	12.6613	0.000127524	0.00417524
12.8511	12.6608	-0.00148799	0.00376471
12.8516	12.6603	-0.000404511	0.00299174
12.852	12.6599	0.000153866	0.00221738
12.8525	12.6594	0.000352994	0.00296388
12.853	12.659	0.000178407	0.00421384
12.8534	12.6585	-0.00141076	0.003836
12.8539	12.658	-0.000322684	0.00304558
12.8544	12.6575	0.000184275	0.00220975
12.8549	12.6571	0.00024363	0.00290407
12.8553	12.6566	0.000335123	0.00428235
12.8558	12.6561	-0.0014353	0.00380675
12.8563	12.6556	-0.000350025	0.00310367
12.8567	12.6551	0.000297242	0.00235873
12.8572	12.6547	0.000334588	0.00297429
12.8577	12.6542	0.00029931	0.00425432
12.8582	12.6537	-0.00130746	0.00376471
12.8586	12.6532	-0.000384304	0.00288464
12.8591	12.6528	0.000357328	0.00222795
12.8596	12.6523	0.000145395	0.00300731
12.8601	12.6519	0.000259164	0.004313
12.8605	12.6514	-0.00144757	0.00366786
12.861	12.6509	-0.00024726	0.00288775
12.8615	12.6504	0.00043095	0.00229178
12.8619	12.6499	0.000293978	0.00322168
12.8624	12.6495	0.000217484	0.00431177
12.8629	12.649	-0.00138369	0.00370399
12.8634	12.6485	-0.000362563	0.00276411
12.8638	12.6481	0.000522515	0.00236823
12.8643	12.6476	0.000131323	0.00320906
12.8648	12.6471	0.000132125	0.00432594
12.8652	12.6466	-0.00130519	0.00375365
12.8657	12.6461	-0.000274137	0.00269732
12.8662	12.6457	0.000487237	0.00228867
12.8667	12.6452	6.99705e-05	0.00322232
12.8671	12.6447	0.000161535	0.00417443
12.8676	12.6442	-0.00127172	0.00367392
12.8681	12.6438	-0.000376903	0.00269641
12.8686	12.6433	0.000596405	0.00233226
12.869	12.6428	0.000101182	0.00330854
12.8695	12.6424	0.000149729	0.00419811
12.87	12.6419	-0.00125631	0.00361573
12.8704	12.6415	-0.000489869	0.00276787
12.8709	12.641	0.000519644	0.0024319
12.8714	12.6405	0.000138724	0.00314587
12.8719	12.64	2.96277e-05	0.00427505
12.8723	12.6396	-0.00140129	0.00363672
12.8728	12.6391	-0.000400641	0.00265405
12.8733	12.6386	0.000550124	0.00249214
12.8737	12.6382	-4.53325e-05	0.00311613
12.8742	12.6377	-1.43889e-05	0.00421508
12.8747	12.6372	-0.00120803	0.00360542
12.8752	12.6367	-0.000362296	0.00257777
12.8756	12.6363	0.000618877	0.00248189
12.8761	12.6358	7.99759e-05	0.00339728
12.8766	12.6353	-8.70128e-05	0.004219
12.8771	12.6348	-0.00112267	0.00375692
12.8775	12.6344	-0.000345691	0.00270887
12.878	12.6339	0.000679766	0.00254507
12.8785	12.6334	-6.98735e-05	0.00332427
12.8789	12.633	7.05055e-05	0.00426678
12.8794	12.6325	-0.00112214	0.00365589
12.8799	12.632	-0.000439789	0.0024705
12.8804	12.6316	0.000796335	0.00254867
12.8808	12.6311	-3.45959e-05	0.00330779
12.8813	12.6306	-0.000311484	0.00429201
12.8818	12.6301	-0.00102444	0.00360886
12.8822	12.6297	-0.000578099	0.00251549
12.8827	12.6292	0.000855619	0.00247813
12.8832	12.6287	-3.43284e-05	0.00345317
12.8837	12.6283	-0.000218118	0.0041841
12.8841	12.6278	-0.00107766	0.00366007
12.8846	12.6273	-0.000390439	0.00243797
12.8851	12.6268	0.000894499	0.00250926
12.8856	12.6264	-1.95253e-05	0.00332615
12.886	12.6259	-0.000270802	0.00426259
12.8865	12.6254	-0.000971021	0.00367146
12.887	12.6249	-0.000556626	0.0024115
12.8874	12.6244	0.000898565	0.00252
12.8879	12.624	-4.19974e-05	0.00345456
12.8884	12.6235	-0.000308345	0.0043225
12.8889	12.623	-0.000943145	0.00348447
12.8893	12.6226	-0.000475601	0.00242879
12.8898	12.6221	0.00098626	0.00267929
12.8903	12.6216	-9.54132e-05	0.00343899
12.8907	12.6211	-0.000530283	0.00415017
12.8912	12.6207	-0.000791566	0.00353101
12.8917	12.6202	-0.000592171	0.00226424
12.8922	12.6197	0.00114351	0.00259226
12.8926	12.6192	-8.10739e-05	0.00350208
12.8931	12.6188	-0.000472997	0.00421245
12.8936	12.6183	-0.000759088	0.0034784
12.8941	12.6178	-0.000615178	0.00226703
12.8945	12.6174	0.00108903	0.0025776
12.895	12.6169	-8.95455e-05	0.00356822
12.8955	12.6164	-0.000502675	0.00416402
12.8959	12.6159	-0.000826308	0.00347529
12.8964	12.6155	-0.000627448	0.00224024
12.8969	12.615	0.0010108	0.00279385
12.8974	12.6145	-4.86677e-05	0.00351561
12.8978	12.614	-0.000597503	0.00420826
12.8983	12.6136	-0.000587034	0.00351856
12.8988	12.6131	-0.00069927	0.00220771
