# 1304     AichiSR QXAFS
# Start     : 8.9544
# End       : 9.0544
# Dir       : Forward
# Points    : 300
# ScanTime  : 1.01549
# Date      : 13.04.23 23:02
# Ring Cur. : 0.9[mA]
12.7557	12.7561	-0.000490939	0.00329796
12.7562	12.7556	-0.0004766	0.00209299
12.7566	12.7551	0.000797067	0.00279557
12.7571	12.7547	5.72363e-05	0.00379568
12.7576	12.7542	-0.00108406	0.00409412
12.7581	12.7537	-0.000393774	0.00320487
12.7585	12.7532	-0.000394309	0.00215585
12.759	12.7528	0.000708373	0.00277582
12.7595	12.7523	-3.11723e-06	0.00377791
12.7599	12.7519	-0.00109913	0.00402234
12.7604	12.7514	-0.000525147	0.00315424
12.7609	12.7509	-0.000424451	0.00217829
12.7614	12.7504	0.000658221	0.00275042
12.7618	12.75	2.11562e-05	0.00393999
12.7623	12.7495	-0.0013136	0.00396474
12.7628	12.7491	-0.000419047	0.00321545
12.7632	12.7486	-0.000273335	0.00207833
12.7637	12.7481	0.000645487	0.00288013
12.7642	12.7477	-8.44996e-06	0.00387444
12.7647	12.7472	-0.00102831	0.00403233
12.7651	12.7467	-0.000305545	0.00302427
12.7656	12.7462	-0.000227856	0.00217722
12.7661	12.7458	0.000598938	0.00287513
12.7666	12.7453	3.36942e-05	0.00401161
12.767	12.7448	-0.00129346	0.0038469
12.7675	12.7443	-0.000397377	0.00306835
12.768	12.7438	-0.000241392	0.00218452
12.7684	12.7434	0.000576198	0.00277656
12.7689	12.7429	0.000133124	0.00391106
12.7694	12.7424	-0.00141229	0.00387476
12.7699	12.742	-0.000406312	0.0031113
12.7703	12.7415	-0.000203315	0.00221254
12.7708	12.741	0.000539119	0.00284104
12.7713	12.7406	-3.25271e-05	0.00408011
12.7717	12.7401	-0.00137241	0.00379552
12.7722	12.7396	-0.000393507	0.00293397
12.7727	12.7391	-5.6533e-05	0.00218452
12.7732	12.7387	0.00041028	0.00286252
12.7736	12.7382	9.32452e-05	0.00418115
12.7741	12.7377	-0.00138875	0.00374307
12.7746	12.7373	-0.000299945	0.0030632
12.7751	12.7368	-0.000137825	0.00212724
12.7755	12.7363	0.000433287	0.0028608
12.776	12.7358	0.00012212	0.00421089
12.7765	12.7353	-0.0014335	0.00372219
12.7769	12.7349	-0.000352362	0.00310475
12.7774	12.7344	6.28365e-05	0.00225302
12.7779	12.7339	0.000308049	0.00285022
12.7784	12.7334	9.32452e-05	0.00416762
12.7788	12.733	-0.00152353	0.00368842
12.7793	12.7325	-0.000314284	0.0029293
12.7798	12.732	0.000207817	0.00222344
12.7802	12.7316	0.00039594	0.00291668
12.7807	12.7311	6.61716e-05	0.00416623
12.7812	12.7306	-0.00133587	0.00372079
12.7817	12.7301	-0.000327553	0.00296543
12.7821	12.7297	0.000184275	0.00232276
12.7826	12.7292	0.000321319	0.00296978
12.7831	12.7287	0.000247696	0.00419049
12.7836	12.7283	-0.00149926	0.00364655
12.784	12.7278	-0.000295076	0.00292651
12.7845	12.7273	0.000117055	0.00225458
12.785	12.7268	0.000224154	0.00289521
12.7854	12.7264	0.000209618	0.00417557
12.7859	12.7259	-0.00146318	0.00370817
12.7864	12.7254	-0.000339289	0.00290439
12.7869	12.7249	0.000370936	0.00222172
12.7873	12.7245	0.000184542	0.00299002
12.7878	12.724	0.000213952	0.00421245
12.7883	12.7235	-0.00146471	0.00371489
12.7887	12.723	-0.000398643	0.00270994
12.7892	12.7226	0.000355794	0.00232276
12.7897	12.7221	3.85631e-05	0.00298535
12.7902	12.7217	6.74379e-05	0.00428079
12.7906	12.7212	-0.00140236	0.00368563
12.7911	12.7207	-0.000454324	0.00279606
12.7916	12.7202	0.000412081	0.00233071
12.7921	12.7198	0.000164335	0.0029307
12.7925	12.7193	0.000109582	0.00427489
12.793	12.7189	-0.00126911	0.00364188
12.7935	12.7184	-0.00039991	0.0027428
12.7939	12.7179	0.000489039	0.00216288
12.7944	12.7174	3.5763e-05	0.00309122
12.7949	12.717	0.00019708	0.00427456
12.7954	12.7165	-0.00130646	0.00363672
12.7958	12.716	-0.00040551	0.00271198
12.7963	12.7155	0.000346395	0.00230907
12.7968	12.7151	5.29023e-05	0.00314555
12.7972	12.7146	5.97689e-05	0.00433979
12.7977	12.7141	-0.00134301	0.00345988
12.7982	12.7136	-0.000437987	0.00258759
12.7987	12.7132	0.000693035	0.00238831
12.7991	12.7127	-2.84973e-06	0.00316128
12.7996	12.7122	1.24883e-05	0.0042948
12.8001	12.7118	-0.00129239	0.00363581
12.8006	12.7113	-0.000458926	0.00263897
12.801	12.7108	0.000600472	0.00232153
12.8015	12.7103	1.04195e-05	0.00319242
12.802	12.7099	-2.63918e-05	0.00428063
12.8024	12.7094	-0.00120883	0.00356059
12.8029	12.7089	-0.000461993	0.00266855
12.8034	12.7085	0.000731113	0.00237258
12.8039	12.708	4.59646e-05	0.00311941
12.8043	12.7075	-8.03426e-05	0.00422211
12.8048	12.707	-0.0012277	0.00352167
12.8053	12.7066	-0.000477331	0.00246804
12.8057	12.7061	0.000652354	0.00231014
12.8062	12.7056	-3.48634e-05	0.00324052
12.8067	12.7051	-0.000115085	0.00427875
12.8072	12.7046	-0.0011132	0.00363393
12.8076	12.7041	-0.000533351	0.00257653
12.8081	12.7037	0.000662359	0.00247222
12.8086	12.7032	-4.60638e-05	0.00335836
12.8091	12.7027	-0.000183108	0.00419983
12.8095	12.7023	-0.00103064	0.00365777
12.81	12.7018	-0.000337755	0.002608
12.8105	12.7013	0.000784065	0.00246009
12.8109	12.7009	-1.38539e-05	0.00324986
12.8114	12.7004	-0.000167502	0.00430988
12.8119	12.6999	-0.00101117	0.00360263
12.8124	12.6994	-0.000526681	0.0024632
12.8128	12.699	0.00084795	0.0025921
12.8133	12.6985	2.17883e-07	0.00335868
12.8138	12.6981	-0.000300943	0.00418099
12.8142	12.6976	-0.00110553	0.00360795
12.8147	12.6971	-0.000538951	0.00229023
12.8152	12.6966	0.000883495	0.00250475
12.8157	12.6962	-3.40609e-05	0.00339154
12.8161	12.6957	-0.000359763	0.00425695
12.8166	12.6952	-0.0010007	0.00347169
12.8171	12.6947	-0.000584769	0.00236012
12.8176	12.6943	0.000897567	0.00257514
12.818	12.6938	-0.000133758	0.00337613
12.8185	12.6933	-0.000432387	0.00418647
12.819	12.6929	-0.000855254	0.00360607
12.8194	12.6924	-0.000556626	0.00230252
12.8199	12.6919	0.000911103	0.00245837
12.8204	12.6915	-8.8743e-05	0.00340678
12.8209	12.691	-0.000438986	0.00414738
12.8213	12.6905	-0.000916339	0.00347717
12.8218	12.69	-0.000487604	0.00222188
12.8223	12.6896	0.00105041	0.00266528
12.8227	12.6891	-0.000104349	0.00345489
12.8232	12.6887	-0.000435722	0.00424793
12.8237	12.6882	-0.000803836	0.00355592
12.8242	12.6877	-0.000683932	0.00220771
12.8246	12.6872	0.00103968	0.00268503
12.8251	12.6868	-0.000203047	0.00345505
12.8256	12.6863	-0.000643785	0.0041237
12.8261	12.6858	-0.00069647	0.00353085
12.8265	12.6853	-0.000604976	0.00216739
12.827	12.6848	0.00094845	0.00271322
12.8275	12.6844	-7.26736e-05	0.00352667
12.8279	12.6839	-0.000668326	0.00423269
12.8284	12.6834	-0.000702337	0.00345365
12.8289	12.6829	-0.000685733	0.00225893
12.8294	12.6825	0.000892965	0.00283933
12.8298	12.682	-0.000112285	0.00357584
12.8303	12.6815	-0.000742216	0.00412821
12.8308	12.6811	-0.000742751	0.00355265
12.8312	12.6806	-0.0005827	0.00212847
12.8317	12.6801	0.00107115	0.0026402
12.8322	12.6796	-0.0001639	0.00364671
12.8327	12.6792	-0.000721742	0.0041346
12.8331	12.6787	-0.000651722	0.00345505
12.8336	12.6782	-0.000694668	0.00207709
12.8341	12.6778	0.000937446	0.00269142
12.8346	12.6773	-2.94595e-05	0.00365712
12.835	12.6768	-0.000770092	0.00413369
12.8355	12.6763	-0.000563028	0.00341441
12.836	12.6758	-0.000661923	0.00208504
12.8364	12.6754	0.00094458	0.00276132
12.8369	12.6749	-0.000170035	0.00362008
12.8374	12.6744	-0.000945214	0.0040566
12.8379	12.6739	-0.000672196	0.00341613
12.8383	12.6735	-0.000691601	0.0021456
12.8388	12.673	0.000925906	0.00282204
12.8393	12.6725	8.08323e-06	0.00369809
12.8397	12.6721	-0.00102577	0.00401209
12.8402	12.6716	-0.000492669	0.00345677
12.8407	12.6711	-0.000556358	0.00216772
12.8412	12.6706	0.000978323	0.00274124
12.8416	12.6702	-4.17299e-05	0.00374152
12.8421	12.6697	-0.000942146	0.00404962
12.8426	12.6693	-0.000417317	0.00331369
12.8431	12.6688	-0.000423648	0.00217035
12.8435	12.6683	0.000845685	0.00279369
12.844	12.6679	3.80281e-05	0.00371161
12.8445	12.6674	-0.000909936	0.00398375
12.8449	12.6669	-0.000415712	0.00326961
12.8454	12.6664	-0.000368966	0.0021442
12.8459	12.666	0.000813742	0.00286612
12.8464	12.6655	-0.000106685	0.00370104
12.8468	12.665	-0.00108199	0.00407684
12.8473	12.6645	-0.000471196	0.00327493
12.8478	12.664	-0.000381236	0.00212691
12.8482	12.6636	0.000749786	0.00275542
12.8487	12.6631	-0.000100282	0.00376127
12.8492	12.6627	-0.001106	0.0039263
12.8497	12.6622	-0.000318618	0.00324052
12.8501	12.6617	-0.000387639	0.00218001
12.8506	12.6613	0.000643418	0.00286998
12.8511	12.6608	-4.78652e-05	0.00395712
12.8516	12.6603	-0.00120496	0.00402095
12.852	12.6598	-0.000381504	0.00316235
12.8525	12.6594	-0.00028054	0.00229957
12.853	12.6589	0.000592268	0.00284416
12.8534	12.6584	1.34872e-05	0.00384658
12.8539	12.658	-0.00122057	0.00393188
12.8544	12.6575	-0.000350293	0.00319054
12.8549	12.657	-0.000193577	0.00212208
12.8553	12.6565	0.00062141	0.00285924
12.8558	12.6561	0.000131858	0.00391041
12.8563	12.6556	-0.00121877	0.00392475
12.8567	12.6551	-0.000413446	0.00310335
12.8572	12.6546	-0.00017724	0.00220336
12.8577	12.6541	0.00061021	0.00290144
12.8582	12.6537	4.31645e-05	0.0039867
12.8586	12.6532	-0.00132027	0.00400817
12.8591	12.6527	-0.000388174	0.00305836
12.8596	12.6523	-1.89903e-05	0.00213298
12.8601	12.6518	0.000496975	0.00293881
12.8605	12.6513	5.79676e-05	0.00411592
12.861	12.6508	-0.00130086	0.00378355
12.8615	12.6504	-0.000314748	0.00305369
12.8619	12.6499	-0.000104349	0.00212257
12.8624	12.6494	0.000398009	0.00288587
12.8629	12.649	0.000106051	0.00409101
12.8634	12.6485	-0.00140363	0.00388845
12.8638	12.648	-0.000441322	0.00298723
12.8643	12.6475	-8.4944e-05	0.00221222
12.8648	12.6471	0.000419215	0.00289038
12.8652	12.6466	0.000147196	0.00404446
12.8657	12.6461	-0.00149466	0.00373153
12.8662	12.6456	-0.000277936	0.0028317
12.8667	12.6451	7.41082e-05	0.00215322
12.8671	12.6447	0.000352459	0.00286563
12.8676	12.6442	2.24225e-05	0.00412043
12.8681	12.6437	-0.00136221	0.0038483
12.8686	12.6432	-0.000399107	0.00296871
12.869	12.6428	8.43098e-05	0.00214994
12.8695	12.6423	0.000461627	0.00300141
12.87	12.6419	0.000189679	0.0041237
12.8704	12.6414	-0.00139316	0.0037194
12.8709	12.6409	-0.000281539	0.00296339
12.8714	12.6404	0.000163337	0.0022695
12.8719	12.64	0.000224154	0.00293585
12.8723	12.6395	0.000199078	0.00422474
12.8728	12.639	-0.00141283	0.00385485
12.8733	12.6386	-0.000394042	0.00288431
12.8737	12.6381	0.000196278	0.00221394
12.8742	12.6376	0.000221086	0.00294052
12.8747	12.6372	0.000247161	0.00422335
12.8752	12.6367	-0.00144044	0.00373792
12.8756	12.6362	-0.000351559	0.00292061
12.8761	12.6357	0.000308781	0.00224851
12.8766	12.6353	0.000316182	0.0029416
12.8771	12.6348	0.000188609	0.00408682
12.8775	12.6343	-0.00147472	0.00374415
12.878	12.6338	-0.000375369	0.00286424
12.8785	12.6334	0.000326384	0.00226843
12.8789	12.6329	0.00018481	0.00299158
12.8794	12.6324	0.000199613	0.00424917
12.8799	12.632	-0.00136574	0.00369432
12.8804	12.6315	-0.000342356	0.0028317
12.8808	12.631	0.00034199	0.00229023
12.8813	12.6306	0.000124724	0.00293086
12.8818	12.6301	0.000172539	0.00425293
12.8822	12.6296	-0.0014279	0.00368998
12.8827	12.6291	-0.000332886	0.00256703
12.8832	12.6287	0.00035813	0.00228432
12.8837	12.6282	9.11763e-05	0.00308204
12.8841	12.6277	0.000117786	0.00424219
12.8846	12.6273	-0.00128905	0.00368375
12.8851	12.6268	-0.000405777	0.00274714
12.8856	12.6263	0.000458363	0.00230236
12.886	12.6258	6.15702e-05	0.00301772
12.8865	12.6253	-7.42074e-05	0.00433201
12.887	12.6249	-0.0013162	0.00354347
12.8874	12.6244	-0.00042165	0.00271773
12.8879	12.6239	0.000398473	0.00229195
12.8884	12.6234	-6.29357e-05	0.00302411
12.8889	12.623	3.88306e-05	0.00429029
12.8893	12.6225	-0.00117916	0.00363098
12.8898	12.622	-0.000460531	0.00271322
12.8903	12.6216	0.000517646	0.0022622
12.8907	12.6211	2.7505e-06	0.00305664
12.8912	12.6206	3.06265e-05	0.00424187
12.8917	12.6201	-0.00123897	0.00362893
12.8922	12.6197	-0.000445924	0.00264348
12.8926	12.6192	0.00057693	0.00231465
12.8931	12.6187	3.4693e-05	0.0032279
12.8936	12.6183	-8.67453e-05	0.00429792
12.8941	12.6178	-0.0012341	0.00368047
12.8945	12.6173	-0.000386105	0.00247222
12.895	12.6168	0.000641153	0.00242863
12.8955	12.6164	1.70898e-05	0.00310212
12.8959	12.6159	-0.000146296	0.00420933
12.8964	12.6154	-0.00122924	0.00352092
12.8969	12.6149	-0.000528214	0.00238315
12.8974	12.6145	0.000697102	0.0023743
12.8978	12.614	2.44913e-05	0.00321405
12.8983	12.6135	-0.000324753	0.00411125
12.8988	12.613	-0.00109786	0.00350111
