# 1304     AichiSR QXAFS
# Start     : 8.9544
# End       : 9.0544
# Dir       : Backward
# Points    : 300
# ScanTime  : 1.01549
# Date      : 13.04.23 22:55
# Ring Cur. : 0.9[mA]
12.7557	12.6121	-1.69215e-05	0.0030632
12.7562	12.6126	7.63733e-05	0.00429013
12.7566	12.613	-0.00133307	0.00354223
12.7571	12.6135	-0.000439521	0.00255597
12.7576	12.614	0.000592535	0.00234472
12.7581	12.6144	-8.98496e-06	0.00313465
12.7585	12.6149	-0.000127623	0.00433791
12.759	12.6154	-0.00125891	0.00358631
12.7595	12.6159	-0.000448991	0.00251721
12.7599	12.6163	0.000468832	0.00240962
12.7604	12.6168	-1.74565e-05	0.00318275
12.7609	12.6173	-6.50045e-05	0.00427424
12.7614	12.6178	-0.00126271	0.00354879
12.7618	12.6182	-0.000316549	0.0025454
12.7623	12.6187	0.000616612	0.00248451
12.7628	12.6192	-5.52667e-05	0.00309573
12.7632	12.6196	-0.000158834	0.00424326
12.7637	12.6201	-0.00116608	0.00357133
12.7642	12.6206	-0.000345156	0.00257932
12.7647	12.6211	0.00069917	0.00244452
12.7651	12.6216	4.28431e-06	0.00324208
12.7656	12.622	-0.000239859	0.00426055
12.7661	12.6225	-0.00110293	0.00356371
12.7666	12.6229	-0.000510076	0.00253777
12.767	12.6234	0.000766658	0.00246009
12.7675	12.6239	-0.000198446	0.00336786
12.768	12.6244	-0.000303012	0.00418287
12.7684	12.6248	-0.00106205	0.00356435
12.7689	12.6253	-0.000479935	0.00239035
12.7694	12.6258	0.000932577	0.00248935
12.7699	12.6263	-4.06599e-05	0.00328985
12.7703	12.6268	-0.000383038	0.00425244
12.7708	12.6272	-0.00103291	0.00357944
12.7713	12.6277	-0.000524416	0.00245321
12.7717	12.6282	0.000860755	0.00249402
12.7722	12.6287	-1.81878e-05	0.00327944
12.7727	12.6291	-0.000379435	0.00424294
12.7732	12.6296	-0.000989427	0.00352355
12.7736	12.6301	-0.000580899	0.00243765
12.7741	12.6305	0.000889095	0.00263553
12.7746	12.631	-0.000103082	0.00335074
12.7751	12.6315	-0.000433921	0.00429963
12.7755	12.632	-0.000906334	0.00345333
12.776	12.6324	-0.000550223	0.00235889
12.7765	12.6329	0.000941512	0.00245542
12.7769	12.6333	-8.62104e-05	0.00343432
12.7774	12.6338	-0.000455127	0.00417181
12.7779	12.6343	-0.000900198	0.00354969
12.7784	12.6348	-0.000676798	0.00224459
12.7788	12.6352	0.00106088	0.00268986
12.7793	12.6357	-0.000172371	0.00339465
12.7798	12.6362	-0.000575834	0.0042358
12.7802	12.6367	-0.000848584	0.00341629
12.7807	12.6371	-0.000587837	0.00232415
12.7812	12.6376	0.00099293	0.00271477
12.7817	12.6381	-7.44749e-05	0.00356559
12.7821	12.6386	-0.000552024	0.00419393
12.7826	12.639	-0.000750955	0.00349488
12.7831	12.6395	-0.000498073	0.00233226
12.7836	12.6399	0.00099853	0.00266602
12.784	12.6404	-0.000116155	0.00334671
12.7845	12.6409	-0.000598306	0.00422302
12.785	12.6414	-0.000827111	0.00344383
12.7854	12.6418	-0.000673195	0.00223713
12.7859	12.6423	0.000981391	0.00259398
12.7864	12.6428	5.55062e-06	0.00370195
12.7869	12.6432	-0.000686464	0.00423564
12.7873	12.6437	-0.000666061	0.00344292
12.7878	12.6442	-0.000655057	0.00222688
12.7883	12.6446	0.000940513	0.00274591
12.7887	12.6451	-0.000118955	0.00363549
12.7892	12.6456	-0.000854987	0.00412838
12.7897	12.6461	-0.000697736	0.00334016
12.7902	12.6466	-0.000551025	0.00214667
12.7906	12.647	0.000892965	0.00274296
12.7911	12.6475	-7.7275e-05	0.00353289
12.7916	12.648	-0.000893064	0.00414287
12.7921	12.6485	-0.000685198	0.00330419
12.7925	12.6489	-0.000629981	0.00201514
12.793	12.6494	0.000960185	0.00276615
12.7935	12.6499	-4.73302e-05	0.00375193
12.7939	12.6503	-0.00087646	0.00419999
12.7944	12.6508	-0.000576298	0.00329362
12.7949	12.6513	-0.000537489	0.00215633
12.7954	12.6518	0.000942778	0.00266404
12.7958	12.6522	-0.000161902	0.0037348
12.7963	12.6527	-0.000990693	0.00407372
12.7968	12.6532	-0.000606242	0.0033459
12.7972	12.6536	-0.000559158	0.0020852
12.7977	12.6541	0.000878626	0.00281892
12.7982	12.6546	-0.000183643	0.00371768
12.7987	12.6551	-0.000952152	0.00406331
12.7991	12.6556	-0.000523346	0.00333393
12.7996	12.656	-0.000513679	0.00201793
12.8001	12.6565	0.00083081	0.00273657
12.8006	12.657	3.018e-06	0.0037938
12.801	12.6575	-0.000974624	0.00402922
12.8015	12.6579	-0.000462261	0.00317185
12.802	12.6584	-0.000542554	0.00212659
12.8024	12.6589	0.000922571	0.00286826
12.8029	12.6593	-0.000156034	0.00366072
12.8034	12.6598	-0.0010053	0.00401816
12.8039	12.6603	-0.000402175	0.00327354
12.8043	12.6607	-0.000434188	0.00207554
12.8048	12.6612	0.000731648	0.00283793
12.8053	12.6617	-5.91735e-06	0.00385952
12.8057	12.6622	-0.00108479	0.00398391
12.8062	12.6626	-0.000514678	0.00326371
12.8067	12.6631	-0.000349294	0.00212831
12.8072	12.6635	0.000837213	0.00287046
12.8076	12.664	-2.30567e-05	0.00386993
12.8081	12.6645	-0.00119089	0.00395793
12.8086	12.665	-0.000517014	0.00313916
12.8091	12.6655	-0.000340626	0.00209749
12.8095	12.6659	0.000576198	0.00288243
12.81	12.6664	-4.84002e-05	0.00386124
12.8105	12.6669	-0.00116148	0.00400087
12.8109	12.6674	-0.00039604	0.00310507
12.8114	12.6678	-0.000270535	0.00214543
12.8119	12.6683	0.000600204	0.00281892
12.8124	12.6688	0.000102181	0.0039744
12.8128	12.6692	-0.00137088	0.00400603
12.8133	12.6697	-0.000307614	0.0031267
12.8138	12.6701	-0.000182573	0.00217067
12.8142	12.6706	0.000617344	0.00285752
12.8147	12.6711	0.000133124	0.00406594
12.8152	12.6716	-0.0013144	0.00391057
12.8157	12.672	-0.00048887	0.00308016
12.8161	12.6725	-0.000143496	0.00225237
12.8166	12.673	0.000490305	0.00292512
12.8171	12.6734	5.92339e-05	0.00413476
12.8176	12.6739	-0.00129952	0.00396211
12.818	12.6744	-0.00029001	0.00315366
12.8185	12.6749	-0.000191312	0.0022046
12.819	12.6753	0.000468297	0.00298396
12.8194	12.6758	0.000126258	0.00403979
12.8199	12.6763	-0.00142176	0.00387025
12.8204	12.6768	-0.000356161	0.00300436
12.8209	12.6773	-0.000128426	0.00222
12.8213	12.6777	0.000392873	0.00290095
12.8218	12.6782	0.000100914	0.0039853
12.8223	12.6787	-0.00152606	0.00375397
12.8227	12.6792	-0.000219652	0.00299018
12.8232	12.6796	7.5107e-05	0.00217067
12.8237	12.6801	0.000388271	0.00282343
12.8242	12.6806	0.000153331	0.00417943
12.8246	12.681	-0.00140182	0.00369432
12.8251	12.6815	-0.000400908	0.00295282
12.8256	12.682	0.000102448	0.00226564
12.8261	12.6824	0.000212418	0.00292307
12.8265	12.6829	0.000302913	0.00416526
12.827	12.6834	-0.00149539	0.00376283
12.8275	12.6838	-0.000289208	0.00299313
12.8279	12.6843	4.74984e-05	0.00210528
12.8284	12.6848	0.00031925	0.00292152
12.8289	12.6853	0.000171469	0.0041673
12.8294	12.6858	-0.00154727	0.00370678
12.8298	12.6862	-0.000372034	0.00294987
12.8303	12.6867	0.000178407	0.00224712
12.8308	12.6872	0.00025483	0.00303206
12.8312	12.6877	0.000124456	0.00420729
12.8317	12.6882	-0.00149259	0.00362754
12.8322	12.6886	-0.000246993	0.0028753
12.8327	12.6891	0.000196545	0.0022745
12.8331	12.6896	0.000246893	0.00294675
12.8336	12.69	0.000173806	0.00432841
12.8341	12.6905	-0.00154961	0.00367752
12.8346	12.691	-0.000297145	0.00286891
12.835	12.6914	0.000276303	0.0021864
12.8355	12.6919	0.000195475	0.00293988
12.836	12.6924	0.000208281	0.00421851
12.8364	12.6928	-0.00145551	0.00369932
12.8369	12.6933	-0.000471196	0.00278016
12.8374	12.6938	0.000294709	0.00226236
12.8379	12.6942	0.000115521	0.0029234
12.8383	12.6947	0.000124189	0.00427317
12.8388	12.6952	-0.0014141	0.00364934
12.8393	12.6957	-0.000328819	0.00275869
12.8397	12.6961	0.000313917	0.00237462
12.8402	12.6966	0.000192211	0.00315833
12.8407	12.6971	4.74984e-05	0.00424047
12.8412	12.6976	-0.00128859	0.00361648
12.8416	12.698	-0.000484269	0.00278902
12.8421	12.6985	0.000424351	0.00223606
12.8426	12.699	3.98294e-05	0.00308982
12.8431	12.6994	0.000151797	0.00424187
12.8435	12.6999	-0.00129166	0.00360312
12.844	12.7004	-0.000351827	0.00267848
12.8445	12.7008	0.00048697	0.0024238
12.8449	12.7013	1.86236e-05	0.00319488
12.8454	12.7018	8.86437e-05	0.00430259
12.8459	12.7023	-0.00137495	0.00364467
12.8464	12.7027	-0.000466862	0.00264799
12.8468	12.7032	0.000456294	0.0024006
12.8473	12.7037	4.20945e-05	0.00328288
12.8478	12.7041	-1.38539e-05	0.00426399
12.8482	12.7046	-0.00133994	0.00352946
12.8487	12.7051	-0.00045279	0.00264348
12.8492	12.7056	0.000481566	0.00240216
12.8497	12.7061	3.21603e-05	0.00321545
12.8501	12.7065	-0.000150095	0.00433233
12.8506	12.707	-0.00118276	0.00363549
12.8511	12.7075	-0.000445924	0.0026511
12.8516	12.708	0.000593605	0.00236947
12.852	12.7084	-3.47922e-05	0.00321233
12.8525	12.7089	-0.000131957	0.0042685
12.853	12.7094	-0.00124638	0.00363344
12.8534	12.7098	-0.000394773	0.00256735
12.8539	12.7103	0.00059867	0.00236217
12.8544	12.7108	-0.000101281	0.00319381
12.8549	12.7113	-0.000192578	0.00421958
12.8553	12.7117	-0.00102244	0.00360746
12.8558	12.7122	-0.000424183	0.00249976
12.8563	12.7127	0.000772258	0.00246181
12.8567	12.7131	-0.000149096	0.00318029
12.8572	12.7136	-0.000233723	0.00417508
12.8577	12.7141	-0.00104058	0.00355748
12.8582	12.7146	-0.000487872	0.00239266
12.8586	12.715	0.000662092	0.00243281
12.8591	12.7155	-5.63367e-05	0.00336663
12.8596	12.716	-0.000319349	0.00422442
12.8601	12.7165	-0.00115101	0.00352044
12.8605	12.7169	-0.000520545	0.00241478
12.861	12.7174	0.000742385	0.00244608
12.8615	12.7179	-6.8536e-05	0.00334328
12.8619	12.7184	-0.000329551	0.00424031
12.8624	12.7188	-0.00110653	0.00343744
12.8629	12.7193	-0.000458194	0.00239126
12.8634	12.7198	0.000826013	0.00257605
12.8638	12.7202	-7.44749e-05	0.00335262
12.8643	12.7207	-0.000263133	0.00421384
12.8648	12.7212	-0.00106512	0.00358427
12.8652	12.7216	-0.00052108	0.00245305
12.8657	12.7221	0.000895034	0.00248156
12.8662	12.7226	-0.000168037	0.00341317
12.8667	12.723	-0.00045279	0.00423097
12.8671	12.7235	-0.000886394	0.00346922
12.8676	12.724	-0.000523346	0.00238536
12.8681	12.7244	0.000977057	0.00252655
12.8686	12.7249	1.0687e-05	0.00345505
12.869	12.7254	-0.000536151	0.00416091
12.8695	12.7259	-0.000924739	0.00354159
12.87	12.7263	-0.000553558	0.0022454
12.8704	12.7268	0.00107702	0.00274264
12.8709	12.7273	-6.4737e-05	0.00343169
12.8714	12.7278	-0.000487337	0.00418238
12.8719	12.7282	-0.000832978	0.00345365
12.8723	12.7287	-0.000662458	0.0022468
12.8728	12.7292	0.000869691	0.00270388
12.8733	12.7296	-8.59429e-05	0.00353724
12.8737	12.7301	-0.000689532	0.00413272
12.8742	12.7306	-0.000859053	0.00341489
12.8747	12.7311	-0.00062158	0.00226344
12.8752	12.7315	0.00106909	0.00266683
12.8756	12.732	-3.04583e-05	0.00355716
12.8761	12.7325	-0.000615713	0.00409568
12.8766	12.7329	-0.000741681	0.00341596
12.8771	12.7334	-0.00069647	0.00213486
12.8775	12.7339	0.00101667	0.00273936
12.878	12.7344	-5.83343e-05	0.0034303
12.8785	12.7348	-0.000724078	0.00415173
12.8789	12.7353	-0.000691868	0.0034303
12.8794	12.7358	-0.000682398	0.00210823
12.8799	12.7363	0.000961719	0.00279589
12.8804	12.7368	-0.000211519	0.00358099
12.8808	12.7373	-0.000766757	0.00415452
12.8813	12.7377	-0.000634582	0.00346144
12.8818	12.7382	-0.000624648	0.0022527
12.8822	12.7387	0.000961719	0.00273641
12.8827	12.7391	-5.12003e-05	0.00368547
12.8832	12.7396	-0.000772357	0.00412075
12.8837	12.7401	-0.000641984	0.00335917
12.8841	12.7405	-0.000682665	0.00214839
12.8846	12.741	0.000929242	0.0026911
12.8851	12.7415	-3.83948e-05	0.00358083
12.8856	12.742	-0.000851652	0.00414067
12.886	12.7424	-0.000513946	0.00333796
12.8865	12.7429	-0.00073815	0.0020321
12.887	12.7434	0.000820341	0.00271338
12.8874	12.7438	-0.000141695	0.0037675
12.8879	12.7443	-0.000985093	0.0040806
12.8884	12.7448	-0.000527216	0.0034834
12.8889	12.7453	-0.000586303	0.00216379
12.8893	12.7457	0.000964787	0.00286236
12.8898	12.7462	-4.47975e-05	0.00368047
12.8903	12.7467	-0.00100683	0.00402234
12.8907	12.7472	-0.000442589	0.00317062
12.8912	12.7477	-0.000516747	0.00214994
12.8917	12.7481	0.000785331	0.00284244
12.8922	12.7486	7.08442e-06	0.00369153
12.8926	12.7491	-0.00112927	0.00407576
12.8931	12.7495	-0.000593704	0.00321094
12.8936	12.75	-0.000358764	0.00210995
12.8941	12.7504	0.000713973	0.00277238
12.8945	12.7509	-5.45354e-06	0.00381142
12.895	12.7514	-0.00111186	0.00405799
12.8955	12.7519	-0.000451524	0.00319226
12.8959	12.7523	-0.00038837	0.0022658
12.8964	12.7528	0.000720376	0.00283261
12.8969	12.7532	-0.000109217	0.00393704
12.8974	12.7537	-0.0012111	0.00399915
12.8978	12.7542	-0.000443391	0.00311425
12.8983	12.7547	-0.000418315	0.00212273
12.8988	12.7551	0.000639816	0.00282064
