# 1304     AichiSR QXAFS
# Start     : 8.9544
# End       : 9.0544
# Dir       : Forward
# Points    : 300
# ScanTime  : 1.01549
# Date      : 13.04.23 23:55
# Ring Cur. : 1[mA]
12.7557	12.7563	1.4486e-05	0.00369932
12.7562	12.7558	-0.00117175	0.00399309
12.7566	12.7553	-0.000383305	0.00318587
12.7571	12.7548	-0.000213784	0.0021442
12.7576	12.7544	0.00054859	0.00278779
12.7581	12.7539	0.00012599	0.00396753
12.7585	12.7534	-0.00117529	0.00394482
12.759	12.753	-0.000344158	0.00310818
12.7595	12.7525	-0.00021892	0.00206062
12.7599	12.7521	0.000711173	0.00289677
12.7604	12.7516	0.000109582	0.00375349
12.7609	12.7511	-0.00115001	0.00392925
12.7614	12.7506	-0.000311216	0.00312982
12.7618	12.7502	-0.000233723	0.00217566
12.7623	12.7497	0.000649821	0.00286874
12.7628	12.7492	9.22463e-05	0.00386837
12.7632	12.7488	-0.00126938	0.00398235
12.7637	12.7483	-0.000320419	0.00320315
12.7642	12.7478	-0.000123289	0.00212241
12.7647	12.7474	0.000660558	0.00291701
12.7651	12.7469	5.33662e-05	0.00383428
12.7656	12.7464	-0.00123077	0.00388738
12.7661	12.7459	-0.000302745	0.00302583
12.7666	12.7455	-3.38473e-06	0.00208611
12.767	12.745	0.000421551	0.00285661
12.7675	12.7445	0.000223155	0.00394499
12.768	12.744	-0.00123664	0.0038796
12.7684	12.7436	-0.000307079	0.00307237
12.7689	12.7431	-5.24666e-05	0.00221394
12.7694	12.7426	0.00046703	0.003021
12.7699	12.7422	4.97635e-05	0.00396039
12.7703	12.7417	-0.00127118	0.00386886
12.7708	12.7412	-0.000344425	0.0029751
12.7713	12.7407	-2.4858e-05	0.00221566
12.7717	12.7403	0.00044249	0.00294192
12.7722	12.7398	0.000198079	0.00416976
12.7727	12.7393	-0.00135888	0.00383568
12.7732	12.7389	-0.000295611	0.00302272
12.7736	12.7384	6.87042e-05	0.00230424
12.7741	12.7379	0.000496708	0.00284335
12.7746	12.7375	8.15097e-05	0.00409117
12.7751	12.737	-0.00138568	0.00382527
12.7755	12.7365	-0.000222184	0.00304247
12.776	12.736	6.00364e-05	0.0020925
12.7765	12.7355	0.000441687	0.002844
12.7769	12.7351	0.000310047	0.00410814
12.7774	12.7346	-0.00138189	0.00367301
12.7779	12.7341	-0.000378971	0.00292168
12.7784	12.7336	2.60251e-05	0.00224851
12.7788	12.7331	0.000429952	0.00300854
12.7793	12.7327	0.000136727	0.00415329
12.7798	12.7322	-0.00133073	0.00373808
12.7802	12.7318	-0.000181841	0.0030042
12.7807	12.7313	0.00011092	0.00221271
12.7812	12.7308	0.000331253	0.00294643
12.7817	12.7303	0.000200344	0.00430463
12.7821	12.7298	-0.00142537	0.00383568
12.7826	12.7294	-0.000238057	0.00298986
12.7831	12.7289	0.000239224	0.00224851
12.7836	12.7284	0.000301112	0.00293848
12.784	12.728	0.000312116	0.00424154
12.7845	12.7275	-0.00139316	0.00370694
12.785	12.727	-0.000275939	0.00283122
12.7854	12.7266	0.000209083	0.00224057
12.7859	12.7261	0.000421016	0.00298224
12.7864	12.7256	0.000219285	0.00420311
12.7869	12.7251	-0.0014269	0.00367457
12.7873	12.7247	-0.000317352	0.00286145
12.7878	12.7242	0.000263765	0.00230923
12.7883	12.7237	0.000333054	0.00301461
12.7887	12.7232	0.000194744	0.00430693
12.7892	12.7228	-0.00136528	0.00374898
12.7897	12.7223	-0.000260797	0.00274935
12.7902	12.7219	0.000243558	0.00242568
12.7906	12.7214	0.000194476	0.00301665
12.7911	12.7209	0.000104249	0.00421712
12.7916	12.7204	-0.00135121	0.00370834
12.7921	12.72	-0.000294541	0.00276755
12.7925	12.7195	0.000283972	0.00227219
12.793	12.719	0.000196813	0.00304451
12.7935	12.7186	0.000249426	0.00426506
12.7939	12.7181	-0.00139009	0.00366646
12.7944	12.7176	-0.000238325	0.00266979
12.7949	12.7172	0.000392873	0.00233726
12.7954	12.7167	0.000240491	0.00305573
12.7958	12.7162	0.000152065	0.0042453
12.7963	12.7157	-0.00127705	0.00371784
12.7968	12.7153	-0.000291741	0.00274903
12.7972	12.7148	0.000580532	0.00234423
12.7977	12.7143	0.000229558	0.00309621
12.7982	12.7138	0.000272433	0.00424482
12.7987	12.7133	-0.00124511	0.00359705
12.7991	12.7129	-0.000312946	0.00288743
12.7996	12.7124	0.000536319	0.00238938
12.8001	12.712	0.000136727	0.00320036
12.8006	12.7115	5.1101e-05	0.0042948
12.801	12.711	-0.00124944	0.0037267
12.8015	12.7105	-0.000240126	0.00277984
12.802	12.7101	0.000594871	0.00234611
12.8024	12.7096	8.55761e-05	0.00310335
12.8029	12.7091	0.000137458	0.0043152
12.8034	12.7087	-0.00106999	0.00373668
12.8039	12.7082	-0.000451524	0.00269781
12.8043	12.7077	0.000697369	0.00241478
12.8048	12.7072	0.000130592	0.00319054
12.8053	12.7068	7.91734e-05	0.00426194
12.8057	12.7063	-0.00107612	0.00374635
12.8062	12.7058	-0.000271605	0.00267757
12.8067	12.7053	0.000617611	0.00244994
12.8072	12.7048	5.95014e-05	0.00314727
12.8076	12.7043	-3.91973e-05	0.00423892
12.8081	12.7039	-0.00113694	0.00373497
12.8086	12.7034	-0.000377705	0.00269191
12.8091	12.7029	0.000602808	0.00244108
12.8095	12.7025	0.00010985	0.00324159
12.81	12.702	-7.62762e-05	0.0042685
12.8105	12.7015	-0.00116275	0.00367285
12.8109	12.7011	-0.000487604	0.0025018
12.8114	12.7006	0.000744186	0.00242256
12.8119	12.7001	5.61663e-05	0.0031376
12.8124	12.6996	-0.000151897	0.00427768
12.8128	12.6992	-0.00109886	0.00356714
12.8133	12.6987	-0.000281271	0.00248263
12.8138	12.6983	0.00066589	0.00240372
12.8142	12.6978	7.5107e-05	0.00322635
12.8147	12.6973	-0.000281539	0.00418442
12.8152	12.6968	-0.00114001	0.00353257
12.8157	12.6964	-0.000397377	0.00252999
12.8161	12.6959	0.000831345	0.00248795
12.8166	12.6954	2.2155e-05	0.00326699
12.8171	12.6949	-0.000152432	0.00419983
12.8176	12.6945	-0.00105538	0.00362287
12.818	12.694	-0.000456393	0.00250508
12.8185	12.6935	0.000843348	0.00256671
12.819	12.693	-4.8864e-05	0.00333565
12.8194	12.6926	-0.000217119	0.0042635
12.8199	12.6921	-0.000921475	0.00358271
12.8204	12.6917	-0.000479935	0.00249369
12.8209	12.6912	0.000890629	0.00260907
12.8213	12.6907	0.000139794	0.00325126
12.8218	12.6902	-0.000383305	0.00424809
12.8223	12.6898	-0.000943948	0.00362099
12.8227	12.6893	-0.000365898	0.00249746
12.8232	12.6888	0.000943848	0.00261325
12.8237	12.6884	1.90874e-05	0.00341645
12.8242	12.6879	-0.000197911	0.00421105
12.8246	12.6874	-0.00077036	0.00368998
12.8251	12.687	-0.000494274	0.00237226
12.8256	12.6865	0.000987794	0.00252934
12.8261	12.686	-4.32637e-05	0.00336942
12.8265	12.6855	-0.000380969	0.00426554
12.827	12.685	-0.00088206	0.00354191
12.8275	12.6846	-0.00046433	0.00237381
12.8279	12.6841	0.00102794	0.00263881
12.8284	12.6836	-9.02768e-05	0.00349553
12.8289	12.6831	-0.000358961	0.00432283
12.8294	12.6827	-0.000762691	0.00342063
12.8298	12.6822	-0.000497538	0.00221238
12.8303	12.6817	0.00108262	0.00250771
12.8308	12.6813	2.80939e-05	0.00341908
12.8312	12.6808	-0.000427786	0.00415828
12.8317	12.6803	-0.000749154	0.00366974
12.8322	12.6798	-0.000538755	0.00218812
12.8327	12.6794	0.0011215	0.00262963
12.8331	12.6789	-5.58017e-05	0.00356215
12.8336	12.6784	-0.000516747	0.00424359
12.8341	12.678	-0.000786964	0.003458
12.8346	12.6775	-0.000593169	0.00222844
12.835	12.677	0.000992128	0.00255597
12.8355	12.6765	-6.04031e-05	0.00344882
12.836	12.676	-0.000591636	0.0041083
12.8364	12.6756	-0.000642519	0.00346283
12.8369	12.6751	-0.000561227	0.00228727
12.8374	12.6746	0.000987794	0.00275992
12.8379	12.6741	-0.000108219	0.00348259
12.8383	12.6737	-0.000539754	0.00411903
12.8388	12.6732	-0.00072101	0.00348914
12.8393	12.6727	-0.000624381	0.00215461
12.8397	12.6723	0.00111663	0.002721
12.8402	12.6718	-2.05241e-05	0.00350675
12.8407	12.6713	-0.000628714	0.00421712
12.8412	12.6709	-0.000559961	0.00345177
12.8416	12.6704	-0.000648386	0.00226376
12.8421	12.6699	0.00104554	0.00269298
12.8426	12.6694	-3.35259e-05	0.00338032
12.8431	12.669	-0.000604976	0.00419844
12.8435	12.6685	-0.000626182	0.00355716
12.844	12.6681	-0.000546156	0.00224041
12.8445	12.6676	0.00102254	0.00278762
12.8449	12.6671	-0.000108219	0.00355034
12.8454	12.6666	-0.000723543	0.00406299
12.8459	12.6662	-0.00046713	0.00335434
12.8464	12.6657	-0.000627983	0.00213658
12.8468	12.6652	0.00103174	0.00268519
12.8473	12.6647	-1.99891e-05	0.00372702
12.8478	12.6642	-0.000829376	0.00405241
12.8482	12.6638	-0.000498073	0.00350519
12.8487	12.6633	-0.000619512	0.00212568
12.8492	12.6628	0.000943046	0.00276336
12.8497	12.6624	-2.51255e-05	0.00367408
12.8501	12.6619	-0.000872322	0.00417181
12.8506	12.6615	-0.000508007	0.00337876
12.8511	12.661	-0.000513946	0.00213937
12.8516	12.6605	0.000917239	0.00280614
12.852	12.66	-2.05241e-05	0.00366163
12.8525	12.6596	-0.000862388	0.00404806
12.853	12.6591	-0.000456393	0.00341145
12.8534	12.6586	-0.000478669	0.0021406
12.8539	12.6582	0.0010228	0.00275198
12.8544	12.6577	-7.24061e-05	0.00372546
12.8549	12.6572	-0.000871056	0.0041469
12.8553	12.6567	-0.000396575	0.00329813
12.8558	12.6563	-0.000517745	0.00211757
12.8563	12.6558	0.000954852	0.00282531
12.8567	12.6553	7.88692e-06	0.00359517
12.8572	12.6548	-0.000962621	0.00412805
12.8577	12.6543	-0.0003677	0.0032402
12.8582	12.6539	-0.000490939	0.00211913
12.8586	12.6534	0.000820341	0.00281785
12.8591	12.6529	-0.000122023	0.0037457
12.8596	12.6525	-0.000955683	0.00403512
12.8601	12.652	-0.000511878	0.00330747
12.8605	12.6515	-0.000337024	0.00212552
12.861	12.651	0.000839282	0.00279278
12.8615	12.6506	5.49e-05	0.00378479
12.8619	12.6501	-0.000929144	0.00391245
12.8624	12.6496	-0.000490939	0.00316751
12.8629	12.6492	-0.00041111	0.00210512
12.8634	12.6487	0.00081294	0.002662
12.8638	12.6482	4.41633e-05	0.00370882
12.8643	12.6477	-0.00107512	0.00404586
12.8648	12.6473	-0.000376635	0.00316923
12.8652	12.6468	-0.00027947	0.00212085
12.8657	12.6463	0.000832344	0.00273968
12.8662	12.6458	4.46983e-05	0.00392286
12.8667	12.6453	-0.00128932	0.00393269
12.8671	12.6449	-0.000367967	0.00315006
12.8676	12.6444	-0.000389708	0.00215821
12.8681	12.6439	0.000684367	0.00281753
12.8686	12.6434	0.00011092	0.00392491
12.869	12.643	-0.00117375	0.00389254
12.8695	12.6425	-0.000299213	0.00321454
12.87	12.6421	-0.000178239	0.00225705
12.8704	12.6416	0.000684564	0.00278639
12.8709	12.6411	7.35732e-05	0.00391648
12.8714	12.6406	-0.00109986	0.00395105
12.8719	12.6402	-0.000313481	0.00298068
12.8723	12.6397	-0.000200711	0.00225082
12.8728	12.6392	0.000727046	0.00285661
12.8733	12.6388	7.97084e-05	0.00400866
12.8737	12.6383	-0.00124664	0.00396023
12.8742	12.6379	-0.000269268	0.00311285
12.8747	12.6374	-0.000188708	0.00213888
12.8752	12.6369	0.000619145	0.00288571
12.8756	12.6364	0.00022542	0.00395556
12.8761	12.636	-0.00131647	0.00385125
12.8766	12.6355	-0.000373567	0.00320127
12.8771	12.635	-6.11344e-05	0.00215461
12.8775	12.6345	0.000559594	0.00280196
12.878	12.634	0.000167403	0.00394343
12.8785	12.6336	-0.00130773	0.0037348
12.8789	12.6331	-0.000421383	0.00288276
12.8794	12.6326	6.05002e-05	0.0021238
12.8799	12.6322	0.000527116	0.00291373
12.8804	12.6317	0.000119855	0.00404184
12.8808	12.6312	-0.00125711	0.0039386
12.8813	12.6308	-0.000351095	0.00299297
12.8818	12.6303	-3.04583e-05	0.00223745
12.8822	12.6298	0.000435355	0.00289382
12.8827	12.6293	0.000147731	0.00394482
12.8832	12.6289	-0.00141176	0.00381576
12.8837	12.6284	-0.000380773	0.00301321
12.8841	12.6279	-1.43889e-05	0.00225179
12.8846	12.6275	0.000480835	0.00291964
12.8851	12.627	0.000156399	0.00406454
12.8856	12.6265	-0.00131026	0.00383616
12.886	12.626	-0.000275404	0.00296028
12.8865	12.6256	6.05714e-05	0.00225474
12.887	12.6251	0.000539119	0.00293725
12.8874	12.6246	0.000172272	0.00411903
12.8879	12.6241	-0.00133407	0.00386263
12.8884	12.6236	-0.000325752	0.00297585
12.8889	12.6232	9.19788e-05	0.00216444
12.8893	12.6227	0.000443488	0.00295626
12.8898	12.6222	0.000223886	0.00422539
12.8903	12.6218	-0.00155367	0.00372391
12.8907	12.6213	-0.000312215	0.00295094
12.8912	12.6208	0.000214951	0.00220041
12.8917	12.6203	0.000346858	0.0029234
12.8922	12.6199	0.000237691	0.00422974
12.8926	12.6194	-0.00136321	0.00375955
12.8931	12.6189	-0.000337559	0.00282703
12.8936	12.6185	0.000132393	0.0022046
12.8941	12.618	0.000294976	0.00298675
12.8945	12.6175	0.000173806	0.00414411
12.895	12.617	-0.00145677	0.00372235
12.8955	12.6166	-0.000308612	0.00283326
12.8959	12.6161	0.00014873	0.0023212
12.8964	12.6156	0.000278372	0.00296527
12.8969	12.6151	0.00024256	0.00426801
12.8974	12.6147	-0.00139155	0.00368515
12.8978	12.6142	-0.000327018	0.00282655
12.8983	12.6137	0.000315183	0.00228212
12.8988	12.6132	0.000260234	0.00294691
