# 1304     AichiSR QXAFS
# Start     : 8.9544
# End       : 9.0544
# Dir       : Forward
# Points    : 300
# ScanTime  : 1.01549
# Date      : 13.04.23 23:49
# Ring Cur. : 1[mA]
12.7557	12.7563	0.000298044	0.00300591
12.7562	12.7558	0.000292373	0.00430693
12.7566	12.7553	-0.00141843	0.00362754
12.7571	12.7548	-0.000350828	0.00277377
12.7576	12.7544	0.000298044	0.00229522
12.7581	12.7539	0.000181939	0.00300838
12.7585	12.7534	0.0002671	0.00433839
12.759	12.753	-0.00137855	0.00377561
12.7595	12.7525	-0.000329889	0.00282703
12.7599	12.752	0.000402076	0.00229162
12.7604	12.7516	0.000159734	0.0030954
12.7609	12.7511	0.000256899	0.00421384
12.7614	12.7506	-0.00128806	0.00371285
12.7618	12.7502	-0.000362099	0.00278156
12.7623	12.7497	0.000456026	0.0022826
12.7628	12.7492	0.000241026	0.00322307
12.7632	12.7488	0.00029651	0.00428702
12.7637	12.7483	-0.00118196	0.00368112
12.7642	12.7478	-0.000304546	0.00278049
12.7647	12.7474	0.000424548	0.0024151
12.7651	12.7469	0.000158735	0.00312515
12.7656	12.7464	0.000118856	0.00430087
12.7661	12.7459	-0.00118889	0.00372611
12.7666	12.7455	-0.000315283	0.00284244
12.767	12.745	0.000546521	0.00235562
12.7675	12.7445	0.000124991	0.00314678
12.768	12.744	9.86491e-05	0.00425883
12.7684	12.7436	-0.00126658	0.00361074
12.7689	12.7431	-0.000378436	0.00268831
12.7694	12.7426	0.000643686	0.00229399
12.7699	12.7422	0.000101717	0.00326108
12.7703	12.7417	9.60453e-05	0.00421712
12.7708	12.7412	-0.0013108	0.0037566
12.7713	12.7407	-0.000241392	0.00258743
12.7717	12.7403	0.000599205	0.0024129
12.7722	12.7398	2.01574e-05	0.00310958
12.7727	12.7393	4.90322e-05	0.00431053
12.7732	12.7389	-0.00115101	0.00362303
12.7736	12.7384	-0.000443391	0.00256252
12.7741	12.7379	0.000687631	0.0022935
12.7746	12.7375	-2.17904e-05	0.00315178
12.7751	12.737	-0.000157033	0.00438043
12.7755	12.7365	-0.00111087	0.0035855
12.776	12.736	-0.000328552	0.00252204
12.7765	12.7355	0.000659291	0.0024297
12.7769	12.735	8.07072e-05	0.00314711
12.7774	12.7346	-0.000110751	0.00432127
12.7779	12.7341	-0.001115	0.00352667
12.7784	12.7336	-0.000359496	0.00250803
12.7788	12.7331	0.000756653	0.00252499
12.7793	12.7327	-3.47922e-05	0.00326044
12.7798	12.7322	-0.00014783	0.00424638
12.7802	12.7318	-0.00104211	0.0034689
12.7807	12.7313	-0.00042058	0.00263897
12.7812	12.7308	0.000785064	0.00253417
12.7817	12.7303	-1.31593e-06	0.00320922
12.7821	12.7298	-0.000163168	0.00426334
12.7826	12.7294	-0.00090867	0.00362738
12.7831	12.7289	-0.000407311	0.00250771
12.7836	12.7284	0.000874292	0.00246959
12.784	12.728	0.000102181	0.00332394
12.7845	12.7275	-0.000264667	0.00416247
12.785	12.727	-0.000919407	0.00358255
12.7854	12.7266	-0.000335757	0.00236807
12.7859	12.7261	0.00084515	0.00257138
12.7864	12.7256	-5.64985e-06	0.00346471
12.7869	12.7251	-0.000320419	0.00422163
12.7873	12.7246	-0.000833513	0.00355485
12.7878	12.7242	-0.000467665	0.00250787
12.7883	12.7237	0.000903434	0.00245821
12.7887	12.7232	-6.16694e-05	0.00341768
12.7892	12.7228	-0.000313214	0.00421089
12.7897	12.7223	-0.000869058	0.00362942
12.7902	12.7219	-0.000418315	0.00228088
12.7906	12.7214	0.000990326	0.00256048
12.7911	12.7209	3.21603e-05	0.00332615
12.7916	12.7204	-0.000313749	0.00425899
12.7921	12.72	-0.000868791	0.00363221
12.7925	12.7195	-0.000493739	0.00238675
12.793	12.719	0.000978323	0.0025236
12.7935	12.7186	-6.32032e-05	0.00333968
12.7939	12.7181	-0.000494274	0.00430447
12.7944	12.7176	-0.000764225	0.003482
12.7949	12.7172	-0.000411645	0.00241912
12.7954	12.7167	0.00100647	0.00266044
12.7958	12.7162	8.71099e-05	0.00348119
12.7963	12.7157	-0.000480934	0.00432717
12.7968	12.7152	-0.000749618	0.00359313
12.7972	12.7148	-0.000486605	0.00231202
12.7977	12.7143	0.00100467	0.00267274
12.7982	12.7138	-0.000100282	0.00347701
12.7987	12.7133	-0.000558891	0.00421245
12.7991	12.7129	-0.000758089	0.00356559
12.7996	12.7124	-0.000581166	0.00236651
12.8001	12.712	0.00105501	0.0026838
12.8006	12.7115	4.38958e-05	0.00355608
12.801	12.711	-0.000505279	0.00431488
12.8015	12.7105	-0.000696737	0.00350036
12.802	12.71	-0.000582968	0.00225351
12.8024	12.7096	0.00116318	0.00280073
12.8029	12.7091	3.75643e-05	0.00344882
12.8034	12.7087	-0.000575834	0.00410158
12.8039	12.7082	-0.000610041	0.00341441
12.8043	12.7077	-0.000521812	0.00227203
12.8048	12.7072	0.000902168	0.00279106
12.8053	12.7068	-3.6861e-05	0.00357321
12.8057	12.7063	-0.000700536	0.0041732
12.8062	12.7058	-0.00062158	0.00350814
12.8067	12.7053	-0.000557357	0.00225098
12.8072	12.7048	0.00117085	0.00269888
12.8076	12.7043	-4.04636e-05	0.00360402
12.8081	12.7039	-0.000624113	0.00416123
12.8086	12.7034	-0.000430051	0.00332894
12.8091	12.7029	-0.000636384	0.00226188
12.8095	12.7025	0.00100106	0.00270903
12.81	12.702	-7.98616e-06	0.00351749
12.8105	12.7015	-0.000789033	0.00420778
12.8109	12.7011	-0.000546424	0.00344431
12.8114	12.7006	-0.000572962	0.00211881
12.8119	12.7001	0.000924908	0.00279508
12.8124	12.6996	1.78211e-05	0.00361836
12.8128	12.6992	-0.000779028	0.00417803
12.8133	12.6987	-0.000526948	0.00343202
12.8138	12.6983	-0.000551757	0.00222672
12.8142	12.6978	0.0010256	0.00270667
12.8147	12.6973	6.56366e-05	0.00371038
12.8152	12.6968	-0.000931142	0.00404554
12.8157	12.6964	-0.00051268	0.0033931
12.8161	12.6959	-0.000455662	0.00214264
12.8166	12.6954	0.000972456	0.00283261
12.8171	12.6949	-4.3995e-05	0.0036087
12.8176	12.6944	-0.000914538	0.00412075
12.818	12.694	-0.000510344	0.00330108
12.8185	12.6935	-0.000401443	0.00223557
12.819	12.693	0.000877092	0.00284867
12.8194	12.6926	0.00011932	0.00367597
12.8199	12.6921	-0.00091427	0.0040289
12.8204	12.6917	-0.000402442	0.00338392
12.8209	12.6912	-0.000355162	0.00211134
12.8213	12.6907	0.000973722	0.00280024
12.8218	12.6902	-2.25217e-05	0.00383337
12.8223	12.6898	-0.000939346	0.0040216
12.8227	12.6893	-0.000417513	0.00328706
12.8232	12.6888	-0.0003649	0.00219386
12.8237	12.6884	0.00088963	0.00279541
12.8242	12.6879	0.000100914	0.00379101
12.8246	12.6874	-0.00100756	0.00398579
12.8251	12.6869	-0.00044719	0.00334311
12.8256	12.6865	-0.000296877	0.00214608
12.8261	12.686	0.000819075	0.00287964
12.8265	12.6855	0.000129058	0.00389533
12.827	12.685	-0.00105952	0.00401751
12.8275	12.6845	-0.000288673	0.00326076
12.8279	12.6841	-0.000310414	0.00221442
12.8284	12.6836	0.000743651	0.00285039
12.8289	12.6831	6.38353e-05	0.00384551
12.8294	12.6827	-0.00110573	0.0038964
12.8298	12.6822	-0.000298411	0.00311334
12.8303	12.6817	-0.00028894	0.00218624
12.8308	12.6813	0.000856885	0.00277222
12.8312	12.6808	6.62061e-06	0.0039313
12.8317	12.6803	-0.00116535	0.00398235
12.8322	12.6798	-0.000277205	0.00333517
12.8327	12.6794	-0.000249329	0.00221442
12.8331	12.6789	0.000705038	0.00290751
12.8336	12.6784	8.71099e-05	0.00402095
12.8341	12.678	-0.00121443	0.00401612
12.8346	12.6775	-0.000257997	0.00308827
12.835	12.677	-9.54132e-05	0.00214576
12.8355	12.6765	0.000597672	0.00289226
12.836	12.676	0.000204749	0.00405692
12.8364	12.6756	-0.00126785	0.0039168
12.8369	12.6751	-0.000281806	0.0030909
12.8374	12.6746	-0.000109217	0.0021624
12.8379	12.6741	0.000626011	0.00289693
12.8383	12.6736	7.30382e-05	0.00404586
12.8388	12.6732	-0.00126405	0.00390966
12.8393	12.6727	-0.000344425	0.00303254
12.8397	12.6722	-4.81327e-05	0.00223869
12.8402	12.6718	0.000587202	0.00280196
12.8407	12.6713	0.000124456	0.00406626
12.8412	12.6708	-0.00137448	0.00380937
12.8416	12.6704	-0.000270802	0.00314039
12.8421	12.6699	2.11562e-05	0.0021937
12.8426	12.6694	0.000435552	0.00286424
12.8431	12.669	0.000226419	0.00398981
12.8435	12.6685	-0.00136854	0.00386746
12.844	12.6681	-0.000341357	0.00301166
12.8445	12.6676	7.20393e-05	0.00214576
12.8449	12.6671	0.000574664	0.00291545
12.8454	12.6666	0.000311848	0.00407109
12.8459	12.6661	-0.00151126	0.00376422
12.8464	12.6657	-0.000322417	0.00288399
12.8468	12.6652	0.000133659	0.00223557
12.8473	12.6647	0.000499508	0.00302551
12.8478	12.6642	0.000256096	0.00427489
12.8482	12.6638	-0.00138189	0.00376438
12.8487	12.6633	-0.00016497	0.00287063
12.8492	12.6628	7.17718e-05	0.00224336
12.8497	12.6624	0.000396475	0.00302255
12.8501	12.6619	0.000217484	0.00413584
12.8506	12.6615	-0.00132	0.00376111
12.8511	12.661	-0.000363098	0.00295266
12.8516	12.6605	0.000211883	0.00223729
12.852	12.66	0.000412545	0.00291218
12.8525	12.6595	0.000291106	0.00424171
12.853	12.6591	-0.00148231	0.00379209
12.8534	12.6586	-0.000169303	0.00288989
12.8539	12.6582	0.000392338	0.00227342
12.8544	12.6577	0.000340991	0.00294487
12.8549	12.6572	0.000302913	0.00421975
12.8553	12.6567	-0.00143323	0.00367457
12.8558	12.6563	-0.000263133	0.00298288
12.8563	12.6558	0.000382671	0.00235562
12.8567	12.6553	0.000359664	0.00301493
12.8572	12.6548	0.000269437	0.00424326
12.8577	12.6543	-0.00145831	0.00366179
12.8582	12.6539	-0.000274869	0.00282998
12.8586	12.6534	0.000388806	0.00214592
12.8591	12.6529	0.000139259	0.00295733
12.8596	12.6525	0.000231555	0.00424638
12.8601	12.652	-0.00134941	0.00373013
12.8605	12.6515	-0.000362099	0.00278049
12.861	12.651	0.000416415	0.00230907
12.8615	12.6506	0.000295244	0.00300806
12.8619	12.6501	0.000216217	0.00417336
12.8624	12.6496	-0.00123744	0.00363704
12.8629	12.6491	-0.00028614	0.00281007
12.8634	12.6487	0.000459094	0.00233382
12.8638	12.6482	0.000185541	0.00308703
12.8643	12.6477	0.000135193	0.00425277
12.8648	12.6473	-0.00131233	0.00370678
12.8652	12.6468	-0.000239859	0.00280974
12.8657	12.6463	0.000472898	0.00237414
12.8662	12.6458	0.000206283	0.00306803
12.8667	12.6453	0.00031925	0.00414378
12.8671	12.6449	-0.0013218	0.0035651
12.8676	12.6444	-0.000361029	0.00280991
12.8681	12.6439	0.000507908	0.00236324
12.8686	12.6434	0.000197812	0.00300543
12.869	12.643	4.44308e-05	0.00422179
12.8695	12.6425	-0.00113721	0.00360172
12.87	12.6421	-0.000389708	0.00274607
12.8704	12.6416	0.000611208	0.00236603
12.8709	12.6411	9.81141e-05	0.00309106
12.8714	12.6406	8.89112e-05	0.00420901
12.8719	12.6402	-0.00117302	0.00364139
12.8723	12.6397	-0.000375636	0.00265217
12.8728	12.6392	0.000607338	0.00242691
12.8733	12.6388	2.60251e-05	0.00323429
12.8737	12.6383	3.39617e-05	0.00437248
12.8742	12.6378	-0.00118449	0.00361353
12.8747	12.6374	-0.000308149	0.00260719
12.8752	12.6369	0.000644417	0.00238987
12.8756	12.6364	3.59593e-05	0.00307876
12.8761	12.6359	-1.38539e-05	0.00421384
12.8766	12.6355	-0.00105051	0.00363688
12.8771	12.635	-0.000385838	0.00261792
12.8775	12.6345	0.000749251	0.00236372
12.878	12.634	-4.78652e-05	0.00315988
12.8785	12.6336	-0.000118955	0.00421868
12.8789	12.6331	-0.00109553	0.00361992
12.8794	12.6326	-0.000389173	0.00254728
12.8799	12.6322	0.000724978	0.00238831
12.8804	12.6317	2.29575e-05	0.00315784
12.8808	12.6312	-0.00014783	0.00410314
12.8813	12.6308	-0.00102831	0.00361025
12.8818	12.6303	-0.000373567	0.00250803
12.8822	12.6298	0.000724978	0.00242272
12.8827	12.6293	9.35127e-05	0.00324347
12.8832	12.6289	-0.000184107	0.00420294
12.8837	12.6284	-0.0010015	0.00349816
12.8841	12.6279	-0.000529748	0.00259301
12.8846	12.6275	0.000946648	0.00244624
12.8851	12.627	3.4158e-05	0.00323429
12.8856	12.6265	-0.000159102	0.00422957
12.886	12.626	-0.000948281	0.00371177
12.8865	12.6255	-0.000401978	0.00246911
12.887	12.6251	0.000813403	0.00251689
12.8874	12.6246	0.000125723	0.00332287
12.8879	12.6241	-0.000335222	0.00435445
12.8884	12.6236	-0.000894063	0.00349585
12.8889	12.6232	-0.000535152	0.00241011
12.8893	12.6227	0.000961987	0.00255908
12.8898	12.6222	-1.23201e-05	0.00346578
12.8903	12.6218	-0.000325021	0.00421712
12.8907	12.6213	-0.000851117	0.00356354
12.8912	12.6208	-0.00039991	0.00240527
12.8917	12.6203	0.00104734	0.00261014
12.8922	12.6198	-8.4944e-05	0.00343465
12.8926	12.6194	-0.000332422	0.00422678
12.8931	12.6189	-0.000833977	0.00353928
12.8936	12.6185	-0.000443124	0.00248049
12.8941	12.618	0.00103028	0.00268192
12.8945	12.6175	2.269e-05	0.0034675
12.895	12.617	-0.000376635	0.00426071
12.8955	12.6166	-0.000826843	0.00361262
12.8959	12.6161	-0.000372301	0.00232899
12.8964	12.6156	0.000996997	0.00263693
12.8969	12.6151	-4.19974e-05	0.00353708
12.8974	12.6147	-0.000483003	0.00414378
12.8978	12.6142	-0.00071434	0.00358255
12.8983	12.6137	-0.000596237	0.00218468
12.8988	12.6132	0.0011151	0.00267537
