# 1304     AichiSR QXAFS
# Start     : 8.9544
# End       : 9.0544
# Dir       : Forward
# Points    : 300
# ScanTime  : 1.01549
# Date      : 13.04.23 23:56
# Ring Cur. : 1[mA]
12.7557	12.7563	-0.000808972	0.00349102
12.7562	12.7558	-0.000467397	0.00238241
12.7566	12.7553	0.000942047	0.0024755
12.7571	12.7549	1.78211e-05	0.00329157
12.7576	12.7544	-0.000368235	0.00424809
12.7581	12.7539	-0.000890264	0.00351732
12.7585	12.7534	-0.000513679	0.00231997
12.759	12.753	0.00103714	0.00256875
12.7595	12.7525	1.04195e-05	0.00334279
12.7599	12.7521	-0.000487604	0.00422614
12.7604	12.7516	-0.000944946	0.000832708
12.7609	12.7511	-0.000507009	0.00300715
12.7614	12.7506	0.000980125	0.00268535
12.7618	12.7502	-6.65383e-05	0.00362443
12.7623	12.7497	-0.000364365	0.00431955
12.7628	12.7492	-0.000770092	0.00357895
12.7632	12.7488	-0.000513411	0.00230875
12.7637	12.7483	0.00101801	0.00262635
12.7642	12.7479	-0.000170302	0.00343202
12.7647	12.7474	-0.000512413	0.00422785
12.7651	12.7469	-0.000806636	0.00350954
12.7656	12.7464	-0.000587569	0.00233677
12.7661	12.7459	0.00105708	0.00267274
12.7666	12.7455	-1.56552e-05	0.00349069
12.767	12.745	-0.000743019	0.00421417
12.7675	12.7445	-0.000693937	0.00354272
12.768	12.744	-0.000549491	0.00222639
12.7684	12.7436	0.00117392	0.00274419
12.7689	12.7431	-5.80668e-05	0.0034026
12.7694	12.7426	-0.000581701	0.00416869
12.7699	12.7422	-0.000668861	0.0034194
12.7703	12.7417	-0.000513144	0.00222328
12.7708	12.7412	0.00108082	0.002662
12.7713	12.7407	3.5228e-05	0.00345226
12.7717	12.7403	-0.000656591	0.00422957
12.7722	12.7398	-0.000718478	0.00338794
12.7727	12.7393	-0.000534153	0.0021864
12.7732	12.7389	0.00112304	0.00270355
12.7736	12.7384	-5.02015e-05	0.00343964
12.7741	12.7379	-0.00064152	0.00410953
12.7746	12.7375	-0.000638916	0.00343341
12.7751	12.737	-0.000555894	0.00215043
12.7755	12.7365	0.000990594	0.00268659
12.776	12.736	-7.52062e-05	0.00363377
12.7765	12.7355	-0.000694668	0.00404463
12.7769	12.7351	-0.000519814	0.00340335
12.7774	12.7346	-0.000544088	0.00214576
12.7779	12.7341	0.000972991	0.00274731
12.7784	12.7336	-4.17299e-05	0.00359468
12.7788	12.7332	-0.000769825	0.00418303
12.7793	12.7327	-0.000554289	0.00346906
12.7798	12.7322	-0.000597503	0.00216584
12.7802	12.7318	0.00112971	0.00282687
12.7807	12.7313	-0.00010055	0.00361976
12.7812	12.7308	-0.000820975	0.00411453
12.7817	12.7303	-0.000557624	0.00342514
12.7821	12.7298	-0.000530016	0.00210544
12.7826	12.7294	0.000997532	0.00280695
12.7831	12.7289	5.02985e-05	0.00375537
12.7836	12.7285	-0.000747353	0.00411485
12.784	12.728	-0.000526484	0.00339138
12.7845	12.7275	-0.00044999	0.0020335
12.785	12.727	0.000914706	0.00281753
12.7854	12.7266	-8.64778e-05	0.00376283
12.7859	12.7261	-0.000827842	0.00412199
12.7864	12.7256	-0.000461529	0.00325904
12.7869	12.7251	-0.000514945	0.00206947
12.7873	12.7247	0.000887365	0.00286145
12.7878	12.7242	6.61716e-05	0.00362303
12.7883	12.7237	-0.000883862	0.00407453
12.7887	12.7232	-0.000495006	0.00318447
12.7892	12.7228	-0.000366166	0.00215199
12.7897	12.7223	0.000892163	0.00276862
12.7902	12.7219	-1.79203e-05	0.00368531
12.7906	12.7214	-0.00108379	0.00392007
12.7911	12.7209	-0.000428053	0.00323274
12.7916	12.7204	-0.000458997	0.00215789
12.7921	12.72	0.00081294	0.00273657
12.7925	12.7195	2.17883e-07	0.00368982
12.793	12.719	-0.000968756	0.00401209
12.7935	12.7186	-0.000424183	0.00319021
12.7939	12.7181	-0.000416514	0.00220583
12.7944	12.7176	0.000838747	0.00275697
12.7949	12.7172	0.000101984	0.0037384
12.7954	12.7167	-0.00103344	0.00397908
12.7958	12.7162	-0.000318083	0.00326683
12.7963	12.7157	-0.00028614	0.0022563
12.7968	12.7153	0.000697369	0.00286236
12.7972	12.7148	-3.89298e-05	0.00380519
12.7977	12.7143	-0.00116328	0.0040348
12.7982	12.7138	-0.000402977	0.00318791
12.7987	12.7134	-0.000389637	0.00217878
12.7991	12.7129	0.000728313	0.00286767
12.7996	12.7124	0.000193745	0.00385657
12.8001	12.712	-0.0010219	0.00409536
12.8006	12.7115	-0.000329087	0.0031376
12.801	12.711	-0.000267735	0.0021492
12.8015	12.7105	0.000740048	0.00288071
12.802	12.7101	0.000179673	0.003954
12.8024	12.7096	-0.0011124	0.00399104
12.8029	12.7091	-0.000226857	0.0031499
12.8034	12.7087	-0.000143229	0.00217952
12.8039	12.7082	0.000704039	0.00288243
12.8043	12.7077	4.95672e-05	0.00387492
12.8048	12.7072	-0.00116275	0.00399218
12.8053	12.7068	-0.000361297	0.00308746
12.8057	12.7063	-0.000140696	0.00215215
12.8062	12.7058	0.000597672	0.00276943
12.8067	12.7053	2.57576e-05	0.00402455
12.8072	12.7048	-0.00129879	0.0039744
12.8076	12.7044	-0.000289208	0.00305992
12.8081	12.7039	-8.03426e-05	0.00217845
12.8086	12.7034	0.000636017	0.00295626
12.8091	12.7029	0.000178942	0.00391025
12.8095	12.7025	-0.00118222	0.0039154
12.81	12.702	-0.000302745	0.0030895
12.8105	12.7015	-0.00015343	0.00212987
12.8109	12.7011	0.000607606	0.00289038
12.8114	12.7006	0.000149996	0.00400833
12.8119	12.7001	-0.00132433	0.00375521
12.8124	12.6996	-0.000328819	0.00306459
12.8128	12.6992	5.0566e-05	0.00219091
12.8133	12.6987	0.00056366	0.00286375
12.8138	12.6983	0.000118856	0.00409896
12.8142	12.6978	-0.00126605	0.00385968
12.8147	12.6973	-0.000312215	0.00301649
12.8152	12.6968	-1.31593e-06	0.00236012
12.8157	12.6964	0.000565925	0.0029533
12.8161	12.6959	0.000200879	0.00411297
12.8166	12.6954	-0.00127705	0.00374382
12.8171	12.6949	-0.000267735	0.00296495
12.8176	12.6945	0.000100914	0.00219214
12.818	12.694	0.000476501	0.00280958
12.8185	12.6935	0.000148462	0.0040588
12.819	12.6931	-0.00136168	0.00368998
12.8194	12.6926	-0.000387639	0.00302567
12.8199	12.6921	9.25138e-05	0.00220615
12.8204	12.6917	0.000588736	0.00299625
12.8209	12.6912	0.000242827	0.00422974
12.8213	12.6907	-0.00141716	0.00376127
12.8218	12.6902	-0.000255732	0.00291218
12.8223	12.6898	0.000141328	0.00226794
12.8227	12.6893	0.000525315	0.00281458
12.8232	12.6889	0.000273503	0.00394778
12.8237	12.6884	-0.00138695	0.00378962
12.8242	12.6879	-0.000239056	0.00310228
12.8246	12.6874	9.11763e-05	0.00228711
12.8251	12.687	0.000353529	0.00286874
12.8256	12.6865	0.000283972	0.00414378
12.8261	12.686	-0.00136655	0.00375005
12.8265	12.6855	-0.000261332	0.00279401
12.827	12.685	0.000102983	0.00221238
12.8275	12.6846	0.000423085	0.00292684
12.8279	12.6841	0.000240491	0.00420745
12.8284	12.6836	-0.00131413	0.00367081
12.8289	12.6831	-0.000342891	0.00287202
12.8294	12.6827	0.000266565	0.00229195
12.8298	12.6822	0.000350461	0.00294987
12.8303	12.6817	0.000172004	0.00414657
12.8308	12.6813	-0.00149899	0.00366335
12.8312	12.6808	-0.00027667	0.00288727
12.8317	12.6803	0.000302378	0.00222484
12.8322	12.6798	0.000214951	0.00301042
12.8327	12.6794	0.000227489	0.00421728
12.8331	12.6789	-0.00127498	0.00372841
12.8336	12.6784	-0.000204581	0.00279541
12.8341	12.678	0.000280173	0.00229785
12.8346	12.6775	0.000208548	0.00286547
12.835	12.677	0.000207549	0.00416386
12.8355	12.6765	-0.00130646	0.00364171
12.836	12.676	-0.00031555	0.00269298
12.8364	12.6756	0.000305446	0.00225302
12.8369	12.6751	0.000220551	0.00308172
12.8374	12.6746	0.000126258	0.00427022
12.8379	12.6741	-0.00128499	0.00360558
12.8383	12.6737	-0.00035056	0.00275386
12.8388	12.6732	0.000441955	0.00232792
12.8393	12.6727	0.000182474	0.00310072
12.8397	12.6723	0.00028144	0.00420311
12.8402	12.6718	-0.00135627	0.00370538
12.8407	12.6713	-0.00029661	0.00276819
12.8412	12.6709	0.00042922	0.00231686
12.8416	12.6704	0.00019428	0.00309573
12.8421	12.6699	0.000232625	0.00422163
12.8426	12.6695	-0.00135248	0.00363409
12.8431	12.669	-0.000430586	0.00270683
12.8435	12.6685	0.000546253	0.00227761
12.844	12.6681	0.000135193	0.00312563
12.8445	12.6676	8.73774e-05	0.00428857
12.8449	12.6671	-0.00119089	0.00365589
12.8454	12.6666	-0.000424718	0.0028208
12.8459	12.6662	0.000608676	0.00241961
12.8464	12.6657	9.57778e-05	0.00314072
12.8468	12.6652	0.000244093	0.00434102
12.8473	12.6647	-0.00126505	0.00357509
12.8478	12.6643	-0.000386569	0.00265889
12.8482	12.6638	0.000514578	0.00232153
12.8487	12.6633	8.19735e-05	0.00316783
12.8492	12.6628	1.32197e-05	0.00419688
12.8497	12.6624	-0.00126705	0.00358411
12.8501	12.6619	-0.000398376	0.0025549
12.8506	12.6615	0.000568262	0.00239421
12.8511	12.661	0.000111918	0.00324052
12.8516	12.6605	3.0894e-05	0.00422941
12.852	12.66	-0.00124251	0.00354953
12.8525	12.6596	-0.000405242	0.00268831
12.853	12.6591	0.000622944	0.0023226
12.8534	12.6586	5.36337e-05	0.00320315
12.8539	12.6582	-8.25365e-06	0.00420155
12.8544	12.6577	-0.00114288	0.00357788
12.8549	12.6572	-0.000366166	0.00252795
12.8553	12.6567	0.000716042	0.00242707
12.8558	12.6563	9.37802e-05	0.00314727
12.8563	12.6558	-4.91854e-06	0.00435552
12.8567	12.6553	-0.00107486	0.00349069
12.8572	12.6548	-0.00054489	0.00250647
12.8577	12.6543	0.000649821	0.00245321
12.8582	12.6539	-9.23456e-05	0.00315505
12.8586	12.6534	-2.79257e-05	0.00428734
12.8591	12.6529	-0.00107866	0.00358862
12.8596	12.6525	-0.000475798	0.00247861
12.8601	12.652	0.000765124	0.00241757
12.8605	12.6515	-3.40609e-05	0.00327756
12.861	12.6511	-7.98076e-05	0.00432266
12.8615	12.6506	-0.00095315	0.00364827
12.8619	12.6501	-0.000374566	0.00244076
12.8624	12.6496	0.000755921	0.00249853
12.8629	12.6492	-3.09933e-05	0.00324675
12.8634	12.6487	-0.000250863	0.00434709
12.8638	12.6482	-0.000922742	0.00357321
12.8643	12.6477	-0.000480934	0.00252827
12.8648	12.6473	0.000747985	0.00246583
12.8652	12.6468	-1.85092e-06	0.00336475
12.8657	12.6463	-0.000160101	0.00426243
12.8662	12.6458	-0.000864457	0.00359361
12.8667	12.6453	-0.000443391	0.00250475
12.8671	12.6449	0.000889363	0.00251753
12.8676	12.6444	-4.96168e-08	0.00339809
12.8681	12.6439	-0.000319082	0.00429153
12.8686	12.6435	-0.000888195	0.00363967
12.869	12.643	-0.000543356	0.00248935
12.8695	12.6425	0.000949449	0.00257154
12.87	12.6421	-6.18485e-06	0.00336802
12.8704	12.6416	-0.000242391	0.00432094
12.8709	12.6411	-0.000895133	0.00359517
12.8714	12.6407	-0.0004822	0.00230408
12.8719	12.6402	0.000926709	0.00262587
12.8723	12.6397	-4.09274e-05	0.00327633
12.8728	12.6393	-0.000389904	0.00405504
12.8733	12.6388	-0.000886127	0.00360558
12.8737	12.6383	-0.000501676	0.00231154
12.8742	12.6379	0.000972188	0.0024551
12.8747	12.6374	-6.9606e-05	0.0033495
12.8752	12.6369	-0.00038277	0.00419344
12.8756	12.6364	-0.000910204	0.00347062
12.8761	12.636	-0.000499875	0.00230875
12.8766	12.6355	0.00101774	0.00261889
12.8771	12.635	2.88252e-05	0.00332754
12.8775	12.6345	-0.000422649	0.00425277
12.878	12.634	-0.000877994	0.00349209
12.8785	12.6336	-0.000491938	0.00217657
12.8789	12.6331	0.000946381	0.00267585
12.8794	12.6326	-1.59227e-05	0.00343513
12.8799	12.6322	-0.000487069	0.00418131
12.8804	12.6317	-0.000780561	0.0035701
12.8808	12.6312	-0.000514945	0.00239454
12.8813	12.6308	0.000986795	0.00261873
12.8818	12.6303	2.17883e-07	0.00356403
12.8822	12.6298	-0.000453058	0.00415468
12.8827	12.6294	-0.000658392	0.00354207
12.8832	12.6289	-0.000606974	0.00228367
12.8837	12.6284	0.00107576	0.00273346
12.8841	12.628	-0.000157033	0.00354862
12.8846	12.6275	-0.000474799	0.00414657
12.8851	12.627	-0.000700536	0.00341038
12.8856	12.6265	-0.000643785	0.00223713
12.886	12.626	0.00114351	0.00270404
12.8865	12.6256	-6.70022e-05	0.00352323
12.887	12.6251	-0.000555092	0.00416558
12.8874	12.6246	-0.00076649	0.00351142
12.8879	12.6241	-0.000590369	0.00214903
12.8884	12.6236	0.000939978	0.00268101
12.8889	12.6232	-3.86623e-05	0.00352183
12.8893	12.6227	-0.000647655	0.00413927
12.8898	12.6222	-0.000716142	0.00340351
12.8903	12.6218	-0.000475334	0.00220116
12.8907	12.6213	0.00103614	0.00266979
12.8912	12.6208	-9.6947e-05	0.00354395
12.8917	12.6203	-0.000619512	0.00409273
12.8922	12.6199	-0.000532352	0.00347029
12.8926	12.6194	-0.000604174	0.00218624
12.8931	12.6189	0.000969121	0.00263365
12.8936	12.6185	5.97689e-05	0.00352667
12.8941	12.618	-0.000742751	0.00430742
12.8945	12.6175	-0.000540289	0.00349725
12.895	12.617	-0.000611575	0.00226548
12.8955	12.6166	0.00095125	0.00281458
12.8959	12.6161	7.38407e-05	0.00374398
12.8964	12.6156	-0.000788498	0.00418459
12.8969	12.6151	-0.000518013	0.00337688
12.8974	12.6147	-0.000606439	0.00216068
12.8978	12.6142	0.000901366	0.00266979
12.8983	12.6137	7.35192e-06	0.00363344
12.8988	12.6133	-0.000947283	0.00414378
