# 1304     AichiSR QXAFS
# Start     : 8.9544
# End       : 9.0544
# Dir       : Forward
# Points    : 300
# ScanTime  : 1.01549
# Date      : 13.04.23 22:55
# Ring Cur. : 0.9[mA]
12.7557	12.756	-0.0013226	0.00385361
12.7562	12.7556	-0.000376368	0.00304247
12.7566	12.7551	-3.81273e-05	0.00206029
12.7571	12.7546	0.000403609	0.00291406
12.7576	12.7541	9.098e-05	0.00405552
12.7581	12.7537	-0.00140876	0.00380535
12.7585	12.7532	-0.000422649	0.00304156
12.759	12.7527	-6.91616e-06	0.00217706
12.7595	12.7523	0.000447358	0.00282827
12.7599	12.7518	0.000123654	0.00407281
12.7604	12.7513	-0.00141303	0.00381453
12.7609	12.7509	-0.000453325	0.00304156
12.7614	12.7504	-1.58342e-06	0.00220911
12.7618	12.7499	0.000330522	0.00292791
12.7623	12.7495	0.000216485	0.00419688
12.7628	12.749	-0.00158868	0.00384813
12.7632	12.7485	-0.000361029	0.0030042
12.7637	12.7481	0.00012879	0.00218608
12.7642	12.7476	0.000233357	0.00282687
12.7647	12.7471	0.00013159	0.00416885
12.7651	12.7466	-0.00144297	0.00374259
12.7656	12.7462	-0.000441055	0.00300231
12.7661	12.7457	0.000207014	0.00227326
12.7666	12.7452	0.000173806	0.00301026
12.767	12.7447	0.000128255	0.00410781
12.7675	12.7443	-0.00149872	0.00370866
12.768	12.7438	-0.000349829	0.00288931
12.7684	12.7433	0.000120122	0.00214887
12.7689	12.7428	0.000281172	0.00293709
12.7694	12.7424	0.000215486	0.00425604
12.7699	12.7419	-0.00141463	0.0037253
12.7703	12.7415	-0.000373835	0.00281737
12.7708	12.741	0.000206479	0.00229023
12.7713	12.7405	0.000233624	0.00303206
12.7717	12.74	8.2241e-05	0.00415221
12.7722	12.7396	-0.00151199	0.00359952
12.7727	12.7391	-0.000345691	0.00283138
12.7732	12.7386	0.000210813	0.00228588
12.7736	12.7382	0.000142327	0.00300076
12.7741	12.7377	0.000231092	0.00421229
12.7746	12.7372	-0.00137982	0.00369277
12.7751	12.7367	-0.000426252	0.00283777
12.7755	12.7362	0.00036373	0.00218329
12.776	12.7358	7.12368e-05	0.00299297
12.7765	12.7353	0.000158931	0.00425695
12.7769	12.7348	-0.00141509	0.00374586
12.7774	12.7343	-0.000349026	0.00271633
12.7779	12.7338	0.000313917	0.00233554
12.7784	12.7334	4.46983e-05	0.00307984
12.7788	12.7329	7.0238e-05	0.00420483
12.7793	12.7324	-0.00135428	0.00364515
12.7798	12.732	-0.000307614	0.00275182
12.7802	12.7315	0.000412348	0.00222967
12.7807	12.731	5.30987e-05	0.00303984
12.7812	12.7305	0.000174073	0.00423908
12.7817	12.7301	-0.00136241	0.00359361
12.7821	12.7296	-0.000512876	0.00274419
12.7826	12.7291	0.000512046	0.00231981
12.7831	12.7287	9.09089e-05	0.00304902
12.7836	12.7282	-0.000110484	0.00422974
12.784	12.7277	-0.00128706	0.00361369
12.7845	12.7273	-0.000527216	0.00260252
12.785	12.7268	0.00045756	0.00245853
12.7854	12.7263	-4.01961e-05	0.0030487
12.7859	12.7258	5.41687e-05	0.00427038
12.7864	12.7253	-0.00131973	0.00363737
12.7869	12.7249	-0.000395308	0.00265529
12.7873	12.7244	0.00055419	0.00236947
12.7878	12.7239	-3.40609e-05	0.00325388
12.7883	12.7235	-4.53325e-05	0.00414534
12.7887	12.723	-0.00114541	0.00347545
12.7892	12.7225	-0.000575031	0.0025608
12.7897	12.7221	0.000709372	0.00237462
12.7902	12.7216	-4.81327e-05	0.00325437
12.7906	12.7211	-0.000223522	0.00425448
12.7911	12.7206	-0.00119756	0.0036445
12.7916	12.7202	-0.000524951	0.00263365
12.7921	12.7197	0.000748252	0.00245198
12.7925	12.7193	-9.87483e-05	0.00326044
12.793	12.7188	-0.000170035	0.00421744
12.7935	12.7183	-0.001105	0.00347808
12.7939	12.7179	-0.000484269	0.00252081
12.7944	12.7174	0.000714508	0.00247378
12.7949	12.7169	-9.33444e-05	0.00311892
12.7954	12.7164	-0.000207381	0.00441592
12.7958	12.7159	-0.00105718	0.00352929
12.7963	12.7155	-0.000593437	0.00240716
12.7968	12.715	0.000804201	0.00248747
12.7972	12.7145	-7.16036e-05	0.00326543
12.7977	12.714	-0.000317084	0.00420826
12.7982	12.7136	-0.00107666	0.00347856
12.7987	12.7131	-0.000506277	0.00235127
12.7991	12.7126	0.000792465	0.00243846
12.7996	12.7122	-0.000150363	0.00332942
12.8001	12.7117	-0.000276403	0.00420499
12.8006	12.7112	-0.00118782	0.00352806
12.801	12.7107	-0.000616444	0.00236291
12.8015	12.7103	0.00086409	0.00254974
12.802	12.7098	-9.23456e-05	0.00323536
12.8024	12.7093	-0.000472266	0.00419017
12.8029	12.7089	-0.00103931	0.00352683
12.8034	12.7084	-0.000556358	0.00232775
12.8039	12.7079	0.000874827	0.00266495
12.8043	12.7075	-0.000120489	0.00330559
12.8048	12.707	-0.000492741	0.0042685
12.8053	12.7065	-0.000961818	0.00354379
12.8057	12.706	-0.000555359	0.00223294
12.8062	12.7055	0.00104888	0.00259382
12.8067	12.7051	-0.000192311	0.00351765
12.8072	12.7046	-0.000442589	0.00433668
12.8076	12.7041	-0.000886662	0.00355265
12.8081	12.7036	-0.000584502	0.00221968
12.8086	12.7031	0.000970922	0.00271289
12.8091	12.7027	-0.000184374	0.00342251
12.8095	12.7022	-0.000589103	0.00424686
12.81	12.7017	-0.000726343	0.00363425
12.8105	12.7013	-0.000613911	0.00218484
12.8109	12.7008	0.00095405	0.00254695
12.8114	12.7003	-8.74767e-05	0.00348259
12.8119	12.6998	-0.000614375	0.00420123
12.8124	12.6994	-0.00087259	0.00356059
12.8128	12.6989	-0.000638185	0.00222188
12.8133	12.6985	0.00104841	0.0027006
12.8138	12.698	-0.000107684	0.00356494
12.8142	12.6975	-0.000771091	0.00410814
12.8147	12.697	-0.000733816	0.00349864
12.8152	12.6966	-0.000732746	0.00221968
12.8157	12.6961	0.00100213	0.00277705
12.8161	12.6956	-0.00013556	0.00350954
12.8166	12.6951	-0.000817105	0.0040792
12.8171	12.6947	-0.00079697	0.00338843
12.8176	12.6942	-0.000602907	0.0022105
12.818	12.6937	0.00103354	0.00278172
12.8185	12.6933	-8.64778e-05	0.00355625
12.819	12.6928	-0.000830713	0.00413755
12.8194	12.6923	-0.000705672	0.0034834
12.8199	12.6919	-0.000604441	0.00211323
12.8204	12.6914	0.000882496	0.0026525
12.8209	12.6909	-9.66795e-05	0.00365524
12.8213	12.6904	-0.000780829	0.00408822
12.8218	12.69	-0.000674996	0.00331198
12.8223	12.6895	-0.000616712	0.00224991
12.8227	12.6891	0.00094845	0.00260628
12.8232	12.6886	-4.68663e-05	0.00362352
12.8237	12.6881	-0.00093701	0.0041287
12.8242	12.6877	-0.000558159	0.00333329
12.8246	12.6872	-0.000600571	0.00212208
12.8251	12.6867	0.000892698	0.00272739
12.8256	12.6862	-2.15229e-05	0.00364671
12.8261	12.6857	-0.00090307	0.00415484
12.8265	12.6852	-0.00050601	0.00335434
12.827	12.6848	-0.000507544	0.00219574
12.8275	12.6843	0.000871492	0.00274092
12.8279	12.6838	2.60251e-05	0.00378258
12.8284	12.6833	-0.00100783	0.00406578
12.8289	12.6829	-0.000502407	0.00329796
12.8294	12.6824	-0.000426983	0.00213019
12.8298	12.682	0.000823141	0.00287218
12.8303	12.6815	-9.38794e-05	0.00381437
12.8308	12.681	-0.00108352	0.00407872
12.8312	12.6805	-0.000598573	0.00333581
12.8317	12.68	-0.000589567	0.00210045
12.8322	12.6796	0.000668494	0.00271928
12.8327	12.6791	-1.85092e-06	0.00375332
12.8331	12.6787	-0.00107766	0.00397285
12.8336	12.6782	-0.000464865	0.00330247
12.8341	12.6777	-0.000383305	0.00217035
12.8346	12.6772	0.000623479	0.00282016
12.835	12.6767	-5.55342e-05	0.00374152
12.8355	12.6763	-0.00107946	0.00404184
12.836	12.6758	-0.000418315	0.00323085
12.8364	12.6753	-0.000368698	0.00207414
12.8369	12.6748	0.000690699	0.00283916
12.8374	12.6743	-8.98496e-06	0.00385936
12.8379	12.6739	-0.00120623	0.00405037
12.8383	12.6734	-0.000420848	0.00320348
12.8388	12.6729	-0.0003733	0.00220132
12.8393	12.6725	0.000715043	0.00291996
12.8397	12.672	-3.15283e-05	0.00376283
12.8402	12.6715	-0.00136888	0.00403979
12.8407	12.6711	-0.000461797	0.00313358
12.8412	12.6706	-0.000229122	0.00221426
12.8416	12.6701	0.00056646	0.0028127
12.8421	12.6697	-0.000101013	0.00393892
12.8426	12.6692	-0.00130159	0.00401021
12.8431	12.6687	-0.000425449	0.00318775
12.8435	12.6683	-0.000299945	0.00208241
12.844	12.6678	0.0005808	0.00287342
12.8445	12.6673	0.000185541	0.00397006
12.8449	12.6668	-0.00142357	0.00381592
12.8454	12.6664	-0.000365898	0.00305197
12.8459	12.6659	-0.000174172	0.00215805
12.8464	12.6654	0.000504644	0.00283154
12.8468	12.6649	7.76396e-05	0.00399293
12.8473	12.6645	-0.00150712	0.00383633
12.8478	12.664	-0.00027387	0.00307345
12.8482	12.6635	-0.000224521	0.00224524
12.8487	12.6631	0.000363267	0.00287669
12.8492	12.6626	1.83561e-05	0.00408741
12.8497	12.6621	-0.00145551	0.00388131
12.8501	12.6617	-0.000502675	0.00303796
12.8506	12.6612	-3.07258e-05	0.00228244
12.8511	12.6607	0.000520714	0.00288324
12.8516	12.6602	0.000115717	0.00407356
12.852	12.6598	-0.0014297	0.00385018
12.8525	12.6593	-0.000326287	0.00287857
12.853	12.6588	-1.74565e-05	0.00230112
12.8534	12.6584	0.000280637	0.00305541
12.8539	12.6579	0.00011372	0.0040879
12.8544	12.6574	-0.00150946	0.00375193
12.8549	12.657	-0.000322684	0.00303345
12.8553	12.6565	-1.56552e-05	0.00233693
12.8558	12.656	0.000373201	0.00290472
12.8563	12.6555	0.000188341	0.00415951
12.8567	12.655	-0.00146598	0.00391524
12.8572	12.6546	-0.000331887	0.00283621
12.8577	12.6541	1.62873e-05	0.00227573
12.8582	12.6536	0.000428418	0.00296044
12.8586	12.6531	0.000150995	0.0042372
12.8591	12.6527	-0.00152506	0.00374586
12.8596	12.6522	-0.000332155	0.00285318
12.8601	12.6517	0.00017814	0.00219993
12.8605	12.6513	0.000191409	0.0029402
12.861	12.6508	0.000197544	0.00424466
12.8615	12.6503	-0.00138342	0.00377324
12.8619	12.6498	-0.000310681	0.00290095
12.8624	12.6494	0.000185541	0.0023525
12.8629	12.6489	0.000257898	0.00296699
12.8634	12.6484	0.000424351	0.00423441
12.8638	12.648	-0.00136475	0.00375021
12.8643	12.6475	-0.000229122	0.00287981
12.8648	12.647	0.000277837	0.00232276
12.8652	12.6465	0.000232822	0.00304902
12.8657	12.646	0.000148997	0.00425277
12.8662	12.6456	-0.00142203	0.00365605
12.8667	12.6451	-0.000339289	0.00287948
12.8671	12.6446	0.000327186	0.00223852
12.8676	12.6441	0.000173271	0.00311581
12.8681	12.6437	0.000183544	0.00426259
12.8686	12.6432	-0.00142537	0.00360918
12.869	12.6427	-0.000371499	0.00271477
12.8695	12.6423	0.000325653	0.00229285
12.87	12.6418	1.19533e-05	0.00308048
12.8704	12.6413	0.000151334	0.00423392
12.8709	12.6409	-0.00132567	0.00372809
12.8714	12.6404	-0.000362831	0.00271305
12.8719	12.6399	0.000456026	0.00235529
12.8723	12.6394	0.00016487	0.00307254
12.8728	12.639	7.1308e-05	0.00426817
12.8733	12.6385	-0.00141536	0.00359296
12.8737	12.6381	-0.000458194	0.00279262
12.8742	12.6376	0.000456829	0.00225893
12.8747	12.6371	8.40423e-05	0.00310523
12.8752	12.6366	4.2897e-05	0.00424187
12.8756	12.6362	-0.00128526	0.0036445
12.8761	12.6357	-0.000341625	0.00274124
12.8766	12.6352	0.000606607	0.00221238
12.8771	12.6347	5.69688e-05	0.00306615
12.8775	12.6343	1.90874e-05	0.00427505
12.878	12.6338	-0.0012287	0.00376906
12.8785	12.6333	-0.000381504	0.00264938
12.8789	12.6328	0.000664892	0.0022731
12.8794	12.6324	3.16253e-05	0.00315178
12.8799	12.6319	-6.50045e-05	0.00424359
12.8804	12.6315	-0.00113541	0.0036218
12.8808	12.631	-0.00037997	0.00258727
12.8813	12.6305	0.000646218	0.00229941
12.8818	12.63	-7.57412e-05	0.00316079
12.8822	12.6296	-1.46564e-05	0.00427456
12.8827	12.6291	-0.00113901	0.00361197
12.8832	12.6286	-0.000414445	0.00261202
12.8837	12.6282	0.000770992	0.00242068
12.8841	12.6277	6.41028e-05	0.00323929
12.8846	12.6272	-0.000124556	0.00431316
12.8851	12.6267	-0.00109119	0.0035869
12.8856	12.6262	-0.000514678	0.00252934
12.886	12.6258	0.000802934	0.0024814
12.8865	12.6253	-3.99286e-05	0.00337221
12.887	12.6248	-0.000160368	0.00419532
12.8874	12.6243	-0.00108912	0.00356838
12.8879	12.6238	-0.000476333	0.00245977
12.8884	12.6234	0.000830347	0.00243625
12.8889	12.6229	-4.04636e-05	0.00332271
12.8893	12.6224	-0.000223789	0.00411764
12.8898	12.622	-0.00109066	0.00360591
12.8903	12.6215	-0.000427518	0.00239266
12.8907	12.621	0.000852551	0.00252499
12.8912	12.6205	3.06265e-05	0.00337269
12.8917	12.6201	-0.000378704	0.0042358
12.8922	12.6196	-0.000944483	0.00349397
12.8926	12.6191	-0.000438255	0.0024537
12.8931	12.6187	0.000855886	0.00251844
12.8936	12.6182	-4.53325e-05	0.00334311
12.8941	12.6177	-0.000349294	0.00423596
12.8945	12.6172	-0.00103011	0.00354175
12.895	12.6168	-0.000561762	0.00231686
12.8955	12.6163	0.000933575	0.00252704
12.8959	12.6158	-0.000145494	0.00342981
12.8964	12.6153	-0.000507276	0.00407748
12.8969	12.6149	-0.000809971	0.00357305
12.8974	12.6144	-0.000554557	0.00233071
12.8978	12.6139	0.0010034	0.00254212
12.8983	12.6135	-0.000117689	0.00343186
12.8988	12.613	-0.000524416	0.00417009
