# 1304     AichiSR QXAFS
# Start     : 8.9544
# End       : 9.0544
# Dir       : Backward
# Points    : 300
# ScanTime  : 1.01549
# Date      : 13.04.24 00:27
# Ring Cur. : 1[mA]
12.7557	12.6124	-0.000597503	0.00326092
12.7562	12.6129	-0.000482468	0.00209282
12.7566	12.6133	0.000531985	0.00287202
12.7571	12.6138	4.38958e-05	0.00406143
12.7576	12.6143	-0.00142943	0.00385001
12.7581	12.6147	-0.000499875	0.00324208
12.7585	12.6152	-0.000334687	0.00220632
12.759	12.6157	0.000467565	0.00285473
12.7595	12.6162	-8.36777e-05	0.00387009
12.7599	12.6166	-0.00133894	0.00395728
12.7604	12.6171	-0.000472266	0.00316923
12.7609	12.6176	-0.000376903	0.00215961
12.7614	12.6181	0.000403342	0.00289489
12.7618	12.6185	-2.15229e-05	0.00400742
12.7623	12.619	-0.00148365	0.0038374
12.7628	12.6195	-0.000495006	0.00313014
12.7632	12.6199	-0.000247528	0.00214404
12.7637	12.6204	0.000386737	0.00298363
12.7642	12.6209	-1.38539e-05	0.00404275
12.7647	12.6214	-0.00157234	0.00389565
12.7651	12.6218	-0.000465328	0.0030523
12.7656	12.6223	-0.000230656	0.00226532
12.7661	12.6228	0.000341526	0.00285989
12.7666	12.6232	3.98294e-05	0.00405971
12.767	12.6237	-0.00151333	0.00388099
12.7675	12.6242	-0.00042165	0.00298986
12.768	12.6247	-0.000127356	0.00212208
12.7684	12.6251	0.000298312	0.00290439
12.7689	12.6256	-1.97216e-05	0.00410379
12.7694	12.6261	-0.0015348	0.00384207
12.7699	12.6266	-0.000436721	0.00312638
12.7703	12.6271	-0.000160903	0.00214748
12.7708	12.6275	0.000350461	0.00297773
12.7713	12.628	1.0152e-05	0.0041142
12.7717	12.6285	-0.00156007	0.00389844
12.7722	12.6289	-0.000503941	0.00290611
12.7727	12.6294	-1.23201e-05	0.00209561
12.7732	12.6299	0.000105516	0.00302476
12.7736	12.6303	2.72914e-05	0.00416279
12.7741	12.6308	-0.00146778	0.00371628
12.7746	12.6313	-0.00045279	0.0029125
12.7751	12.6318	-7.82738e-05	0.0021973
12.7755	12.6322	0.000244628	0.00283761
12.776	12.6327	8.2776e-05	0.0041936
12.7765	12.6332	-0.00146705	0.00371489
12.7769	12.6336	-0.000445924	0.00292635
12.7774	12.6341	2.29575e-05	0.0022622
12.7779	12.6346	9.55815e-05	0.00298691
12.7784	12.635	-4.65104e-06	0.00423253
12.7788	12.6355	-0.00161782	0.00371301
12.7793	12.636	-0.000426716	0.00277689
12.7798	12.6365	6.71704e-05	0.00222656
12.7802	12.637	0.000213685	0.00296216
12.7807	12.6374	0.000152332	0.00412682
12.7812	12.6379	-0.00151099	0.00373185
12.7817	12.6384	-0.000474531	0.00294627
12.7821	12.6388	0.000106586	0.002225
12.7826	12.6393	0.000162802	0.00286391
12.7831	12.6398	1.68223e-05	0.00415903
12.7836	12.6402	-0.00160609	0.00370104
12.784	12.6407	-0.000443855	0.00278795
12.7845	12.6412	0.000112186	0.00222639
12.785	12.6417	0.00011652	0.0030727
12.7854	12.6421	9.19788e-05	0.00423253
12.7859	12.6426	-0.00148365	0.0036808
12.7864	12.643	-0.000352094	0.00282622
12.7869	12.6435	0.000286237	0.00224803
12.7873	12.644	0.000150531	0.00290316
12.7878	12.6444	0.000106514	0.00421089
12.7883	12.6449	-0.00140923	0.0036554
12.7887	12.6454	-0.000460531	0.00277877
12.7892	12.6459	0.000227221	0.00220132
12.7897	12.6464	-5.64985e-06	0.00297306
12.7902	12.6468	0.000106514	0.00423703
12.7906	12.6473	-0.00152326	0.00373013
12.7911	12.6478	-0.000375101	0.00280974
12.7916	12.6483	0.00025203	0.00229957
12.7921	12.6487	3.0359e-05	0.00295561
12.7925	12.6492	4.92997e-05	0.00413149
12.793	12.6497	-0.00148212	0.00361664
12.7935	12.6501	-0.000564027	0.00263849
12.7939	12.6506	0.00031925	0.00243019
12.7944	12.6511	-8.46765e-05	0.0030087
12.7949	12.6516	-1.43889e-05	0.00424638
12.7954	12.6521	-0.00148005	0.00350766
12.7958	12.6525	-0.000466666	0.00264815
12.7963	12.653	0.00039701	0.0024319
12.7968	12.6534	9.14438e-05	0.00302255
12.7972	12.6539	-8.9278e-05	0.00422802
12.7977	12.6544	-0.00137855	0.00359952
12.7982	12.6549	-0.000445389	0.00264971
12.7987	12.6554	0.000435819	0.00237709
12.7991	12.6558	-2.63918e-05	0.00309745
12.7996	12.6563	-1.43889e-05	0.00427112
12.8001	12.6568	-0.00140516	0.00362893
12.8006	12.6573	-0.00046713	0.00265873
12.801	12.6577	0.000497439	0.00247222
12.8015	12.6582	2.75589e-05	0.00307066
12.802	12.6587	-0.000101548	0.0042358
12.8024	12.6591	-0.00139389	0.00357198
12.8029	12.6596	-0.000591903	0.00250631
12.8034	12.6601	0.000554725	0.00246476
12.8039	12.6605	-0.00015063	0.00319676
12.8043	12.661	-7.06048e-05	0.00423892
12.8048	12.6615	-0.00132947	0.0035592
12.8053	12.662	-0.000617443	0.00252081
12.8057	12.6624	0.000617611	0.0023961
12.8062	12.6629	-6.50045e-05	0.00325265
12.8067	12.6634	-0.000324218	0.00424171
12.8072	12.6638	-0.00125638	0.00355313
12.8076	12.6643	-0.000544088	0.00250443
12.8081	12.6648	0.000706037	0.00245805
12.8086	12.6652	-0.000256998	0.00313309
12.8091	12.6657	-0.000239591	0.00427489
12.8095	12.6662	-0.0011124	0.00348946
12.81	12.6667	-0.00055329	0.00238192
12.8105	12.6672	0.000614811	0.00243486
12.8109	12.6676	-0.000213784	0.00323118
12.8114	12.6681	-0.000295076	0.00423703
12.8119	12.6686	-0.00123517	0.00360247
12.8124	12.669	-0.000622579	0.00227278
12.8128	12.6695	0.000696103	0.00253654
12.8133	12.67	-0.000151897	0.00323478
12.8138	12.6704	-0.000383573	0.00437871
12.8142	12.6709	-0.00117429	0.00351453
12.8147	12.6714	-0.00071154	0.00246304
12.8152	12.6718	0.00068303	0.00237865
12.8157	12.6723	-0.000107149	0.00331165
12.8161	12.6728	-0.000380969	0.00421245
12.8166	12.6732	-0.00113261	0.00358099
12.8171	12.6737	-0.000475066	0.00242036
12.8176	12.6742	0.000851017	0.00247689
12.818	12.6747	-5.09328e-05	0.00331369
12.8185	12.6751	-0.000355697	0.00421712
12.819	12.6756	-0.00107973	0.00359066
12.8194	12.6761	-0.000616444	0.00237676
12.8199	12.6766	0.000809337	0.00242347
12.8204	12.6771	-0.000128158	0.00346144
12.8209	12.6775	-0.000445656	0.00422147
12.8213	12.678	-0.00106125	0.00353461
12.8218	12.6785	-0.000656323	0.00237569
12.8223	12.679	0.000740048	0.0026248
12.8227	12.6794	-0.000116352	0.00329608
12.8232	12.6799	-0.000536686	0.00416623
12.8237	12.6804	-0.000968488	0.00358304
12.8242	12.6808	-0.000742751	0.00222795
12.8246	12.6813	0.000859756	0.00261685
12.8251	12.6818	-0.000210984	0.00338015
12.8256	12.6823	-0.000478936	0.00422442
12.8261	12.6827	-0.000875658	0.0034412
12.8265	12.6832	-0.000587569	0.00236201
12.827	12.6837	0.000925443	0.00270076
12.8275	12.6841	-0.000133758	0.0034893
12.8279	12.6846	-0.000616979	0.0042875
12.8284	12.6851	-0.000960552	0.00352199
12.8289	12.6856	-0.000669592	0.00218624
12.8294	12.686	0.000827208	0.00270199
12.8298	12.6865	-0.000235257	0.00341596
12.8303	12.687	-0.000564295	0.00413428
12.8308	12.6875	-0.000841646	0.00351453
12.8312	12.688	-0.000739951	0.00232866
12.8317	12.6884	0.000810603	0.00266683
12.8322	12.6889	-0.000159102	0.00348635
12.8327	12.6893	-0.000618245	0.00415157
12.8331	12.6898	-0.000838382	0.00356387
12.8336	12.6903	-0.000714073	0.00217706
12.8341	12.6908	0.000879696	0.00260096
12.8346	12.6912	-0.000175171	0.00357632
12.835	12.6917	-0.000818443	0.00418705
12.8355	12.6922	-0.000789497	0.00345612
12.836	12.6926	-0.000779295	0.00215666
12.8364	12.6931	0.000904237	0.00273936
12.8369	12.6936	-0.000165701	0.00363549
12.8374	12.694	-0.000776228	0.0042059
12.8379	12.6945	-0.000789033	0.00354969
12.8383	12.695	-0.000727146	0.00222049
12.8388	12.6955	0.000853086	0.00281237
12.8393	12.6959	-0.000102547	0.0035147
12.8397	12.6964	-0.000894331	0.00419205
12.8402	12.6969	-0.000714875	0.00340587
12.8407	12.6974	-0.000761157	0.00215633
12.8412	12.6978	0.000996462	0.00264192
12.8416	12.6983	-0.000252932	0.00355887
12.8421	12.6988	-0.000884129	0.00427161
12.8426	12.6992	-0.000663725	0.00343637
12.8431	12.6997	-0.000687998	0.00215461
12.8435	12.7001	0.000801936	0.00275042
12.844	12.7006	-6.75372e-05	0.00363581
12.8445	12.7011	-0.00095315	0.00405069
12.8449	12.7016	-0.000599572	0.00342858
12.8454	12.7021	-0.000740219	0.00221598
12.8459	12.7025	0.000809872	0.00270199
12.8464	12.703	-0.000209182	0.00356854
12.8468	12.7035	-0.000938544	0.00415001
12.8473	12.7039	-0.000681863	0.00334139
12.8478	12.7044	-0.000694668	0.00217239
12.8482	12.7049	0.000849216	0.0027006
12.8487	12.7054	-0.000230923	0.00374554
12.8492	12.7059	-0.00101297	0.00408773
12.8497	12.7063	-0.000721278	0.00330623
12.8501	12.7068	-0.000689799	0.00217206
12.8506	12.7073	0.000801204	0.00264439
12.8511	12.7078	-0.000143764	0.00375816
12.8516	12.7082	-0.000959821	0.00409568
12.852	12.7087	-0.000577564	0.00331074
12.8525	12.7092	-0.000613376	0.00214683
12.853	12.7096	0.000738782	0.002804
12.8534	12.7101	-1.10538e-05	0.00374447
12.8539	12.7106	-0.00111573	0.0040879
12.8544	12.7111	-0.000574764	0.00327977
12.8549	12.7115	-0.000526413	0.00215494
12.8553	12.712	0.000827475	0.0027537
12.8558	12.7125	-0.000117154	0.00376438
12.8563	12.7129	-0.00113694	0.00408478
12.8567	12.7134	-0.000653255	0.00324798
12.8572	12.7139	-0.000501408	0.00223294
12.8577	12.7143	0.000622748	0.00267118
12.8582	12.7148	-0.000122754	0.00389033
12.8586	12.7153	-0.00123104	0.00404463
12.8591	12.7158	-0.000566363	0.00320455
12.8596	12.7163	-0.000410914	0.00224851
12.8601	12.7167	0.000778393	0.00283449
12.8605	12.7172	-0.00018004	0.00385329
12.861	12.7177	-0.0012093	0.00403824
12.8615	12.7182	-0.000537685	0.00334918
12.8619	12.7186	-0.000430853	0.00209111
12.8624	12.7191	0.000589468	0.00277082
12.8629	12.7195	-6.57359e-05	0.00391197
12.8634	12.72	-0.00134327	0.00399792
12.8638	12.7205	-0.000490672	0.00320659
12.8643	12.721	-0.000499072	0.00224229
12.8648	12.7214	0.000575199	0.00291062
12.8652	12.7219	-8.59429e-05	0.00372767
12.8657	12.7224	-0.00124331	0.00403029
12.8662	12.7228	-0.000535152	0.00325002
12.8667	12.7233	-0.000409112	0.00221131
12.8671	12.7238	0.000421284	0.00284228
12.8676	12.7242	-8.06101e-05	0.00395416
12.8681	12.7247	-0.0013116	0.00395089
12.8686	12.7252	-0.000520545	0.00311876
12.869	12.7257	-0.000337024	0.00224352
12.8695	12.7261	0.000512777	0.00288866
12.87	12.7266	-3.27946e-05	0.0038746
12.8704	12.7271	-0.00139849	0.00392491
12.8709	12.7276	-0.000578901	0.00305353
12.8714	12.728	-0.000187977	0.00223697
12.8719	12.7285	0.000427686	0.0028717
12.8723	12.729	3.31592e-05	0.00400152
12.8728	12.7294	-0.00142223	0.00390091
12.8733	12.7299	-0.000460531	0.00304951
12.8737	12.7304	-0.000266201	0.00210512
12.8742	12.7309	0.000351727	0.00287342
12.8747	12.7313	1.88911e-05	0.00398842
12.8752	12.7318	-0.00139055	0.00391385
12.8756	12.7323	-0.00041498	0.00314727
12.8761	12.7327	-0.000109752	0.0022622
12.8766	12.7332	0.000360395	0.00299018
12.8771	12.7337	4.05607e-05	0.00409412
12.8775	12.7342	-0.001534	0.00393081
12.878	12.7346	-0.000443391	0.00302599
12.8785	12.7351	-0.000164435	0.00224368
12.8789	12.7356	0.000387272	0.00287981
12.8794	12.7361	3.21603e-05	0.00408494
12.8799	12.7366	-0.00149485	0.00394466
12.8804	12.737	-0.000508542	0.00292603
12.8808	12.7375	-4.96168e-08	0.00223885
12.8813	12.738	0.000279103	0.00297306
12.8818	12.7385	8.43098e-05	0.00419017
12.8822	12.7389	-0.00155727	0.00384067
12.8827	12.7394	-0.000471999	0.0030196
12.8832	12.7399	-0.00010895	0.00227138
12.8837	12.7403	0.000333054	0.00291905
12.8841	12.7408	0.000154865	0.00401939
12.8846	12.7413	-0.00164163	0.00380658
12.8851	12.7418	-0.000416247	0.00286407
12.8856	12.7422	-3.6861e-05	0.00231407
12.886	12.7427	0.000344861	0.00292619
12.8865	12.7432	0.000115521	0.00418287
12.887	12.7436	-0.00161042	0.00380503
12.8874	12.7441	-0.000410379	0.00290455
12.8879	12.7446	-1.95253e-05	0.00228088
12.8884	12.745	0.000147731	0.00286219
12.8889	12.7455	4.74984e-05	0.00422957
12.8893	12.746	-0.00141356	0.00370662
12.8898	12.7465	-0.000352094	0.00299453
12.8903	12.747	0.000170471	0.00222017
12.8907	12.7474	0.00012879	0.00296822
12.8912	12.7479	0.000149265	0.00424965
12.8917	12.7484	-0.00158308	0.00377201
12.8922	12.7488	-0.000497806	0.00272879
12.8926	12.7493	7.61942e-06	0.00226097
12.8931	12.7498	9.37802e-05	0.00304091
12.8936	12.7502	0.000144128	0.00413165
12.8941	12.7507	-0.0014343	0.00366662
12.8945	12.7512	-0.000427251	0.00287964
12.895	12.7517	0.000112453	0.00216739
12.8955	12.7521	3.88306e-05	0.00287374
12.8959	12.7526	0.000102983	0.0040829
12.8964	12.753	-0.00156494	0.00363581
12.8969	12.7535	-0.000442856	0.0028644
12.8974	12.754	0.000213952	0.0022826
12.8978	12.7544	0.000163069	0.00301166
12.8983	12.7549	9.93804e-05	0.00425153
12.8988	12.7554	-0.00158895	0.00370555
