# 1304     AichiSR QXAFS
# Start     : 8.9544
# End       : 9.0544
# Dir       : Forward
# Points    : 300
# ScanTime  : 1.01549
# Date      : 13.04.23 23:08
# Ring Cur. : 0.9[mA]
12.7557	12.7561	-0.000329354	0.00257621
12.7562	12.7557	0.000588201	0.00240887
12.7566	12.7552	7.97084e-05	0.00314866
12.7571	12.7547	-9.23456e-05	0.00433979
12.7576	12.7542	-0.00102984	0.00364778
12.7581	12.7538	-0.000356696	0.0025186
12.7585	12.7533	0.00075025	0.00247174
12.759	12.7528	-9.72145e-05	0.00325732
12.7595	12.7524	-0.000235525	0.00422286
12.7599	12.7519	-0.0010191	0.00358534
12.7604	12.7514	-0.000494007	0.0024646
12.7609	12.751	0.000855084	0.00242036
12.7614	12.7505	-6.39345e-05	0.00332599
12.7618	12.75	-0.000342356	0.00415919
12.7623	12.7496	-0.000999432	0.00348012
12.7628	12.7491	-0.000438255	0.00246272
12.7632	12.7486	0.000802203	0.00236463
12.7637	12.7482	-7.24061e-05	0.0031893
12.7642	12.7477	-0.000362296	0.00413927
12.7647	12.7472	-0.000922474	0.00354953
12.7651	12.7467	-0.000522079	0.00226859
12.7656	12.7463	0.000838283	0.00255286
12.7661	12.7458	-3.38473e-06	0.00328411
12.7666	12.7453	-0.000415248	0.00428562
12.767	12.7448	-0.000945481	0.0034639
12.7675	12.7444	-0.000522347	0.00231047
12.768	12.7439	0.000883762	0.00260923
12.7684	12.7434	-6.50045e-05	0.00345644
12.7689	12.743	-0.000407846	0.00422039
12.7694	12.7425	-0.000878993	0.0035592
12.7699	12.742	-0.000513411	0.00225565
12.7703	12.7416	0.000890896	0.00259038
12.7708	12.7411	-3.17116e-07	0.00350347
12.7713	12.7406	-0.000566631	0.00429808
12.7717	12.7401	-0.000759623	0.00342965
12.7722	12.7397	-0.000519547	0.00227278
12.7727	12.7392	0.000995463	0.00263398
12.7732	12.7387	6.28365e-05	0.00359517
12.7736	12.7383	-0.000416514	0.00412215
12.7741	12.7378	-0.000789764	0.00344882
12.7746	12.7373	-0.000581166	0.00222795
12.7751	12.7368	0.000977325	0.00266093
12.7755	12.7364	1.5556e-05	0.00341145
12.776	12.7359	-0.000691601	0.00421212
12.7765	12.7354	-0.000688533	0.00341908
12.7769	12.7349	-0.000652257	0.00226204
12.7774	12.7344	0.000879625	0.00262635
12.7779	12.734	3.98294e-05	0.00361557
12.7784	12.7335	-0.000521348	0.00420262
12.7788	12.733	-0.000641787	0.00344431
12.7793	12.7325	-0.000630783	0.00219337
12.7798	12.7321	0.00100133	0.0025753
12.7802	12.7316	1.22208e-05	0.00358518
12.7807	12.7311	-0.000613376	0.00411453
12.7812	12.7306	-0.000691333	0.00325593
12.7817	12.7302	-0.000587302	0.00213207
12.7821	12.7297	0.00102614	0.00276164
12.7826	12.7292	-0.00010335	0.00359501
12.7831	12.7288	-0.00081764	0.00413616
12.7836	12.7283	-0.000598573	0.00343046
12.784	12.7278	-0.000638185	0.00219075
12.7845	12.7274	0.00107622	0.00270748
12.785	12.7269	-0.000169036	0.00355952
12.7854	12.7264	-0.000739684	0.00417615
12.7859	12.7259	-0.000553558	0.00334483
12.7864	12.7255	-0.000685733	0.00208536
12.7869	12.725	0.000953782	0.00269265
12.7873	12.7245	-5.09328e-05	0.00356682
12.7878	12.724	-0.000792368	0.00406175
12.7883	12.7236	-0.000494274	0.00337205
12.7887	12.7231	-0.000671929	0.00220975
12.7892	12.7226	0.000949984	0.00282564
12.7897	12.7222	-7.64725e-05	0.00361492
12.7902	12.7217	-0.000893332	0.00415001
12.7906	12.7212	-0.000456393	0.00329018
12.7911	12.7208	-0.00057323	0.00230612
12.7916	12.7203	0.000968853	0.0027065
12.7921	12.7198	1.86236e-05	0.00367253
12.7925	12.7194	-0.000994831	0.0040035
12.793	12.7189	-0.000524683	0.00332099
12.7935	12.7184	-0.0004766	0.00214125
12.7939	12.718	0.0008991	0.00277222
12.7944	12.7175	7.20393e-05	0.00384706
12.7949	12.717	-0.000991496	0.00408044
12.7954	12.7165	-0.000468663	0.00312112
12.7958	12.7161	-0.000462796	0.00208611
12.7963	12.7156	0.000888899	0.00275026
12.7968	12.7151	-3.35259e-05	0.0038083
12.7972	12.7146	-0.00105979	0.00393999
12.7977	12.7141	-0.000387639	0.00324068
12.7982	12.7137	-0.000468128	0.00212412
12.7987	12.7132	0.000778928	0.00275804
12.7991	12.7127	8.68424e-05	0.00384379
12.7996	12.7123	-0.00119629	0.00396351
12.8001	12.7118	-0.000425984	0.00316842
12.8006	12.7113	-0.000369233	0.00214388
12.801	12.7109	0.000713973	0.00272895
12.8015	12.7104	4.21657e-05	0.00395605
12.802	12.7099	-0.00112187	0.00393097
12.8024	12.7094	-0.000395041	0.00319972
12.8029	12.709	-0.000345959	0.00206931
12.8034	12.7085	0.000670759	0.0028258
12.8039	12.708	4.2897e-05	0.00387369
12.8043	12.7076	-0.0012149	0.00389328
12.8048	12.7071	-0.0003733	0.00314678
12.8053	12.7066	-0.000203047	0.0020925
12.8057	12.7061	0.000540653	0.0027741
12.8062	12.7056	8.12422e-05	0.00381109
12.8067	12.7052	-0.00107866	0.00396383
12.8072	12.7047	-0.000350828	0.00313932
12.8076	12.7042	-4.86677e-05	0.00221705
12.8081	12.7037	0.000638282	0.00293102
12.8086	12.7033	2.42238e-05	0.0039699
12.8091	12.7028	-0.0012221	0.00381576
12.8095	12.7023	-0.000443391	0.00303673
12.81	12.7019	-0.000147563	0.00210388
12.8105	12.7014	0.000536587	0.00284695
12.8109	12.7009	5.69688e-05	0.0038841
12.8114	12.7004	-0.00135041	0.00394171
12.8119	12.7	-0.000324486	0.00293773
12.8124	12.6995	-7.88088e-05	0.00212364
12.8128	12.699	0.000542722	0.00283589
12.8133	12.6986	0.000147998	0.00403856
12.8138	12.6981	-0.00130953	0.00374119
12.8142	12.6976	-0.00031835	0.00293242
12.8147	12.6972	1.0152e-05	0.00219837
12.8152	12.6967	0.000354527	0.00283654
12.8157	12.6962	6.00364e-05	0.00405397
12.8161	12.6957	-0.00133967	0.00371349
12.8166	12.6953	-0.000291741	0.00288775
12.8171	12.6948	-2.84973e-06	0.00216288
12.8176	12.6943	0.000410815	0.00281409
12.818	12.6938	0.000161	0.00408682
12.8185	12.6934	-0.00145704	0.00375644
12.819	12.6929	-0.000309879	0.00286284
12.8194	12.6924	6.33715e-05	0.00207586
12.8199	12.692	0.000306979	0.00288727
12.8204	12.6915	0.000209618	0.00413755
12.8209	12.691	-0.00147391	0.00361648
12.8213	12.6906	-0.000287674	0.002962
12.8218	12.6901	0.000179673	0.00221984
12.8223	12.6896	0.000308246	0.00283294
12.8227	12.6892	0.000263765	0.00414346
12.8232	12.6887	-0.00147445	0.0036327
12.8237	12.6882	-0.000305812	0.00289242
12.8242	12.6878	0.000267635	0.00206357
12.8246	12.6873	0.000301914	0.00286703
12.8251	12.6868	0.000296243	0.00421073
12.8256	12.6863	-0.00139029	0.00367408
12.8261	12.6858	-0.00034216	0.00273501
12.8265	12.6854	0.000205481	0.00224229
12.827	12.6849	0.000247161	0.00297306
12.8275	12.6844	0.000215486	0.00425711
12.8279	12.6839	-0.00145064	0.00359173
12.8284	12.6835	-0.000282003	0.00277984
12.8289	12.683	0.000416415	0.00217673
12.8294	12.6825	0.000181475	0.00297928
12.8298	12.6821	0.000191944	0.00417057
12.8303	12.6816	-0.0014223	0.00362786
12.8308	12.6811	-0.000353628	0.00277861
12.8312	12.6806	0.000462429	0.00215805
12.8317	12.6802	0.000138261	0.00303361
12.8322	12.6797	0.000235425	0.00420434
12.8327	12.6792	-0.00136808	0.00361508
12.8331	12.6788	-0.000333421	0.00278779
12.8336	12.6783	0.000420214	0.00229318
12.8341	12.6778	9.73828e-05	0.00293537
12.8346	12.6773	0.000144128	0.0041768
12.835	12.6769	-0.00137215	0.00368547
12.8355	12.6764	-0.000413981	0.00265422
12.836	12.6759	0.000485971	0.00214248
12.8364	12.6754	6.61716e-05	0.00307147
12.8369	12.6749	0.000101182	0.00427317
12.8374	12.6745	-0.00134354	0.00374243
12.8379	12.674	-0.000278935	0.00266962
12.8383	12.6735	0.000635018	0.00229071
12.8388	12.673	5.64338e-05	0.0030618
12.8393	12.6726	9.73116e-05	0.00426898
12.8397	12.6721	-0.0012111	0.00358223
12.8402	12.6716	-0.000305812	0.00262308
12.8407	12.6712	0.000693838	0.00235545
12.8412	12.6707	0.000175803	0.00323257
12.8416	12.6702	9.99154e-05	0.00420343
12.8421	12.6698	-0.00122644	0.00360698
12.8426	12.6693	-0.000342427	0.00262775
12.8431	12.6688	0.00074852	0.00232029
12.8435	12.6684	-1.33189e-05	0.00309385
12.844	12.6679	-6.19369e-05	0.00411903
12.8445	12.6674	-0.00129852	0.00361541
12.8449	12.667	-0.000435919	0.00254244
12.8454	12.6665	0.000646753	0.00236775
12.8459	12.666	0.000110385	0.0032002
12.8464	12.6655	-6.72697e-05	0.00426678
12.8468	12.665	-0.00119323	0.00358518
12.8473	12.6646	-0.000378704	0.00240372
12.8478	12.6641	0.000757455	0.00253901
12.8482	12.6636	8.35073e-06	0.00332615
12.8487	12.6632	-0.000232457	0.004273
12.8492	12.6627	-0.00109093	0.0036554
12.8497	12.6622	-0.000436721	0.00246116
12.8501	12.6618	0.000845417	0.00247362
12.8506	12.6613	-0.000112553	0.00326339
12.8511	12.6608	-0.000251594	0.00425556
12.8516	12.6603	-0.0010063	0.00351061
12.852	12.6599	-0.000455394	0.00241134
12.8525	12.6594	0.000829544	0.00250213
12.853	12.6589	-5.96006e-05	0.00327477
12.8534	12.6585	-0.000371302	0.0041396
12.8539	12.658	-0.00102064	0.00354379
12.8544	12.6575	-0.000480399	0.00231825
12.8549	12.6571	0.000848217	0.00245993
12.8553	12.6566	-3.19921e-05	0.00337425
12.8558	12.6561	-0.000330888	0.00433045
12.8563	12.6556	-0.000913271	0.00350331
12.8567	12.6551	-0.000489405	0.0023693
12.8572	12.6547	0.000935912	0.00251458
12.8577	12.6542	5.20998e-05	0.00328723
12.8582	12.6537	-0.000425182	0.00418877
12.8586	12.6532	-0.000928877	0.00349708
12.8591	12.6528	-0.000510344	0.00224851
12.8596	12.6523	0.0010136	0.00257202
12.8601	12.6519	2.28669e-06	0.0032438
12.8605	12.6514	-0.000531817	0.00425416
12.861	12.6509	-0.000867525	0.00344759
12.8615	12.6504	-0.000523881	0.00226982
12.8619	12.6499	0.000971189	0.00257031
12.8624	12.6495	-3.38473e-06	0.0033459
12.8629	12.649	-0.000627448	0.00417181
12.8634	12.6485	-0.000780829	0.00344415
12.8638	12.6481	-0.000576298	0.00221238
12.8643	12.6476	0.000877627	0.00265594
12.8648	12.6471	-5.58017e-05	0.00342547
12.8652	12.6466	-0.000594168	0.0041827
12.8657	12.6462	-0.000824774	0.00347013
12.8662	12.6457	-0.000511878	0.0022745
12.8667	12.6452	0.000978858	0.00262447
12.8671	12.6447	-6.78047e-05	0.00352511
12.8676	12.6442	-0.000674996	0.00423236
12.8681	12.6438	-0.000696202	0.00354642
12.8686	12.6433	-0.000723543	0.0022032
12.869	12.6428	0.00102714	0.00271134
12.8695	12.6424	-1.05188e-05	0.00346718
12.87	12.6419	-0.000618513	0.00415001
12.8704	12.6415	-0.000473532	0.00340039
12.8709	12.641	-0.000693866	0.00218763
12.8714	12.6405	0.0010164	0.00265545
12.8719	12.64	-8.4409e-05	0.00347733
12.8723	12.6396	-0.000741949	0.00420606
12.8728	12.6391	-0.000574764	0.00339433
12.8733	12.6386	-0.00069647	0.00212257
12.8737	12.6382	0.000938177	0.0027101
12.8742	12.6377	-8.64778e-05	0.00358116
12.8747	12.6372	-0.000804371	0.0041382
12.8752	12.6367	-0.000673926	0.00332255
12.8756	12.6363	-0.000578099	0.00220132
12.8761	12.6358	0.000989328	0.00266307
12.8766	12.6353	4.97635e-05	0.0036218
12.8771	12.6348	-0.000928342	0.00411576
12.8775	12.6344	-0.000620047	0.00333066
12.878	12.6339	-0.000543553	0.00205063
12.8785	12.6334	0.000829544	0.00265126
12.8789	12.633	1.19533e-05	0.00358304
12.8794	12.6325	-0.000841914	0.00408978
12.8799	12.632	-0.000548689	0.00313342
12.8804	12.6316	-0.00049934	0.00219542
12.8808	12.6311	0.000982657	0.00268675
12.8813	12.6306	-5.34654e-05	0.00367629
12.8818	12.6301	-0.000963887	0.00400833
12.8822	12.6297	-0.000530551	0.0032701
12.8827	12.6292	-0.000561227	0.00216305
12.8832	12.6287	0.000902703	0.00266823
12.8837	12.6283	-8.16089e-05	0.00371268
12.8841	12.6278	-0.00103651	0.00399604
12.8846	12.6273	-0.000474067	0.00329485
12.8851	12.6268	-0.0004794	0.00204005
12.8856	12.6264	0.000812405	0.00267397
12.886	12.6259	7.76396e-05	0.00374882
12.8865	12.6254	-0.00105745	0.00401676
12.887	12.6249	-0.000441055	0.00316096
12.8874	12.6244	-0.000477866	0.00208504
12.8879	12.624	0.000747985	0.0027632
12.8884	12.6235	6.97742e-05	0.00378012
12.8889	12.623	-0.00115101	0.00389624
12.8893	12.6226	-0.000421918	0.00324363
12.8898	12.6221	-0.000326554	0.00209749
12.8903	12.6216	0.000680497	0.00265733
12.8907	12.6211	5.33662e-05	0.00386215
12.8912	12.6207	-0.00119269	0.00407453
12.8917	12.6202	-0.000369233	0.00305885
12.8922	12.6197	-0.000293274	0.00220272
12.8926	12.6192	0.000674897	0.00267634
12.8931	12.6188	2.36888e-05	0.00396039
12.8936	12.6183	-0.00124638	0.00394327
12.8941	12.6178	-0.000395308	0.00309524
12.8945	12.6174	-0.000241125	0.00213502
12.895	12.6169	0.000582066	0.00282376
12.8955	12.6164	2.50263e-05	0.0039204
12.8959	12.6159	-0.00130159	0.00391261
12.8964	12.6155	-0.000430853	0.00310835
12.8969	12.615	-0.000133027	0.0022082
12.8974	12.6145	0.000629347	0.00278295
12.8978	12.614	3.06265e-05	0.0039313
12.8983	12.6136	-0.00143584	0.00379987
12.8988	12.6131	-0.000372301	0.00301166
