# 1304     AichiSR QXAFS
# Start     : 8.9544
# End       : 9.0544
# Dir       : Forward
# Points    : 300
# ScanTime  : 1.01549
# Date      : 13.04.23 23:30
# Ring Cur. : 1[mA]
12.7557	12.7562	-0.00140182	0.00362786
12.7562	12.7557	-0.000379239	0.00276927
12.7566	12.7553	0.000438619	0.00239577
12.7571	12.7548	0.000181939	0.00308139
12.7576	12.7543	0.000133392	0.00434118
12.7581	12.7538	-0.00137395	0.00373824
12.7585	12.7534	-0.000391706	0.00275649
12.759	12.7529	0.000455491	0.00234209
12.7595	12.7524	0.000126258	0.0031535
12.7599	12.752	0.000155864	0.00425121
12.7604	12.7515	-0.00137909	0.00367425
12.7609	12.7511	-0.000398643	0.00271682
12.7614	12.7506	0.000642152	0.00244871
12.7618	12.7501	1.42897e-05	0.00318807
12.7623	12.7496	6.2569e-05	0.0043429
12.7628	12.7492	-0.00128192	0.00362893
12.7632	12.7487	-0.000342891	0.00272567
12.7637	12.7483	0.000560058	0.00243625
12.7642	12.7478	7.20393e-05	0.00322651
12.7647	12.7473	-2.94595e-05	0.00439289
12.7651	12.7468	-0.00122617	0.00373824
12.7656	12.7464	-0.000378169	0.00261653
12.7661	12.7459	0.000682299	0.00248124
12.7666	12.7454	-4.453e-05	0.00333812
12.767	12.7449	-2.51255e-05	0.0042059
12.7675	12.7444	-0.00116995	0.00366679
12.768	12.744	-0.000428517	0.00249885
12.7684	12.7435	0.000635482	0.00249418
12.7689	12.743	-4.17299e-05	0.00324535
12.7694	12.7426	-7.88088e-05	0.00436626
12.7699	12.7421	-0.0012341	0.0037784
12.7703	12.7416	-0.00043212	0.00266028
12.7708	12.7412	0.000659024	0.00243174
12.7713	12.7407	9.95573e-06	0.00323118
12.7717	12.7402	-1.69215e-05	0.00419672
12.7722	12.7397	-0.00114948	0.00364483
12.7727	12.7393	-0.000427518	0.00250959
12.7732	12.7388	0.00065469	0.00250754
12.7736	12.7384	-2.12554e-05	0.00320487
12.7741	12.7379	-0.000203315	0.00417009
12.7746	12.7374	-0.0011262	0.00371644
12.7751	12.7369	-0.000453593	0.00253745
12.7755	12.7364	0.000787329	0.00252532
12.776	12.736	-0.000139162	0.00321512
12.7765	12.7355	-0.000198446	0.00414657
12.7769	12.735	-0.00119476	0.00365245
12.7774	12.7345	-0.000584234	0.00243314
12.7779	12.734	0.000845952	0.00268159
12.7784	12.7336	-8.18764e-05	0.00335745
12.7788	12.7331	-0.000349026	0.00434945
12.7793	12.7326	-0.000989694	0.003659
12.7798	12.7322	-0.000545086	0.00248795
12.7802	12.7317	0.000801936	0.00264004
12.7807	12.7312	5.57025e-05	0.00331976
12.7812	12.7307	-0.00033829	0.00430881
12.7817	12.7302	-0.00093981	0.00357165
12.7821	12.7298	-0.000514945	0.00243641
12.7826	12.7293	0.000886295	0.00265454
12.7831	12.7289	-7.18366e-06	0.00341006
12.7836	12.7284	-0.000305812	0.00426194
12.784	12.7279	-0.000905602	0.0035301
12.7845	12.7274	-0.000632781	0.00243781
12.785	12.727	0.000858686	0.00257186
12.7854	12.7265	-5.30016e-05	0.00357149
12.7859	12.726	-0.000424986	0.00427612
12.7864	12.7255	-0.000759623	0.00360231
12.7869	12.7251	-0.00051268	0.00251753
12.7873	12.7246	0.000988329	0.00259038
12.7878	12.7241	-5.42679e-05	0.00345832
12.7883	12.7236	-0.00050881	0.00427472
12.7887	12.7232	-0.000823776	0.00349692
12.7892	12.7227	-0.000620314	0.00238675
12.7897	12.7223	0.000981659	0.00270388
12.7902	12.7218	-9.44144e-05	0.00347545
12.7906	12.7213	-0.000478134	0.00426071
12.7911	12.7208	-0.000816642	0.00350471
12.7916	12.7204	-0.000593437	0.00236045
12.7921	12.7199	0.00108622	0.00265201
12.7925	12.7194	-2.02566e-05	0.0035301
12.793	12.719	-0.000576298	0.00423908
12.7935	12.7185	-0.000707206	0.00348479
12.7939	12.7181	-0.000615909	0.00228916
12.7944	12.7176	0.00101233	0.00268224
12.7949	12.7171	-0.000140696	0.00349987
12.7954	12.7166	-0.000630516	0.00423269
12.7958	12.7161	-0.000744285	0.00347824
12.7963	12.7157	-0.000612841	0.00214248
12.7968	12.7152	0.00097959	0.00271928
12.7972	12.7147	-0.000131957	0.0035469
12.7977	12.7142	-0.000768826	0.00430242
12.7982	12.7138	-0.000709007	0.00352478
12.7987	12.7133	-0.000536151	0.00226532
12.7991	12.7128	0.000996729	0.00279262
12.7996	12.7124	-4.91315e-05	0.00361385
12.8001	12.7119	-0.000740682	0.00426211
12.8006	12.7114	-0.000688265	0.00350331
12.801	12.7109	-0.000679598	0.00223294
12.8015	12.7105	0.000893233	0.00288619
12.802	12.71	-0.000137629	0.00358722
12.8024	12.7095	-0.000739684	0.00418598
12.8029	12.7091	-0.000549955	0.00355748
12.8034	12.7086	-0.000519547	0.00220427
12.8039	12.7081	0.00105789	0.00264488
12.8043	12.7077	-0.000137361	0.00370973
12.8048	12.7072	-0.000859588	0.00422147
12.8053	12.7067	-0.000593437	0.00337769
12.8057	12.7062	-0.000659926	0.00225597
12.8062	12.7057	0.000924373	0.00279155
12.8067	12.7052	-9.15431e-05	0.00371489
12.8072	12.7048	-0.000812771	0.00422802
12.8076	12.7043	-0.000492669	0.00348275
12.8081	12.7038	-0.000551757	0.00233398
12.8086	12.7033	0.000894231	0.00270092
12.8091	12.7029	-0.000132225	0.00383166
12.8095	12.7024	-0.000950083	0.00404962
12.81	12.7019	-0.000555894	0.00344833
12.8105	12.7015	-0.00064045	0.00221673
12.8109	12.701	0.000950715	0.00284212
12.8114	12.7005	-6.62708e-05	0.00367597
12.8119	12.7	-0.000993297	0.00409552
12.8124	12.6996	-0.000465596	0.00333033
12.8128	12.6991	-0.000554557	0.00218157
12.8133	12.6987	0.000784796	0.00285768
12.8138	12.6982	-3.32584e-05	0.00383117
12.8142	12.6977	-0.00100764	0.00408585
12.8147	12.6973	-0.000471267	0.00341269
12.8152	12.6968	-0.000468931	0.00226532
12.8157	12.6963	0.000758186	0.00281146
12.8161	12.6958	-4.04636e-05	0.00396163
12.8166	12.6953	-0.00116842	0.00415484
12.8171	12.6949	-0.000495273	0.00325142
12.8176	12.6944	-0.000355429	0.00215961
12.818	12.6939	0.000823141	0.00290144
12.8185	12.6934	-1.30514e-05	0.00373808
12.819	12.693	-0.00108226	0.00406208
12.8194	12.6925	-0.000469662	0.00334606
12.8199	12.6921	-0.000373835	0.00208021
12.8204	12.6916	0.000628348	0.0028871
12.8209	12.6911	2.36888e-05	0.00388582
12.8213	12.6906	-0.00117175	0.00404774
12.8218	12.6902	-0.000387639	0.00325314
12.8223	12.6897	-0.000259798	0.00234627
12.8227	12.6892	0.000714241	0.00277082
12.8232	12.6888	0.000133392	0.0039962
12.8237	12.6883	-0.00127812	0.00403185
12.8242	12.6878	-0.00043212	0.00306582
12.8246	12.6874	-0.000356428	0.00215027
12.8251	12.6869	0.000698172	0.00286424
12.8256	12.6864	3.24278e-05	0.00390139
12.8261	12.6859	-0.00135961	0.00400833
12.8265	12.6855	-0.000394042	0.00315473
12.827	12.685	-0.000195646	0.00217018
12.8275	12.6845	0.000459094	0.00290423
12.8279	12.684	2.08887e-05	0.00407249
12.8284	12.6835	-0.00138008	0.00388131
12.8289	12.6831	-0.000415515	0.00317497
12.8294	12.6826	-0.00017337	0.00219821
12.8298	12.6821	0.000630417	0.00289022
12.8303	12.6817	1.75536e-05	0.00408371
12.8308	12.6812	-0.0013356	0.00393285
12.8312	12.6807	-0.000244728	0.0031535
12.8317	12.6802	-8.77442e-05	0.00217952
12.8322	12.6798	0.00046036	0.00296527
12.8327	12.6793	7.94409e-05	0.004077
12.8331	12.6788	-0.00123357	0.0038855
12.8336	12.6784	-0.000337024	0.00303968
12.8341	12.6779	-7.08723e-05	0.00229023
12.8346	12.6774	0.000357863	0.00289956
12.835	12.6769	6.79729e-05	0.00408027
12.8355	12.6765	-0.0013274	0.00393688
12.836	12.676	-0.000372569	0.0030087
12.8364	12.6755	4.74984e-05	0.00224073
12.8369	12.675	0.000429684	0.00294224
12.8374	12.6745	0.000166868	0.0042372
12.8379	12.6741	-0.00146164	0.00388845
12.8383	12.6736	-0.000351827	0.00304419
12.8388	12.6731	8.02434e-05	0.0021937
12.8393	12.6726	0.000311581	0.00313261
12.8397	12.6722	0.000133392	0.00427612
12.8402	12.6717	-0.00145858	0.00377668
12.8407	12.6713	-0.000253663	0.00295282
12.8412	12.6708	0.000103982	0.00231047
12.8416	12.6703	0.000381405	0.00288587
12.8421	12.6698	0.00024816	0.00414378
12.8426	12.6694	-0.001534	0.00376734
12.8431	12.6689	-0.000395308	0.00289054
12.8435	12.6685	0.000141061	0.00229162
12.844	12.668	0.00033539	0.00301976
12.8445	12.6675	0.000171737	0.00422974
12.8449	12.667	-0.00146237	0.00379536
12.8454	12.6666	-0.000427786	0.00285301
12.8459	12.6661	0.000335658	0.0022418
12.8464	12.6656	0.000286576	0.00303329
12.8468	12.6651	0.000220355	0.00430898
12.8473	12.6647	-0.00145478	0.00378167
12.8478	12.6642	-0.000387372	0.00281801
12.8482	12.6637	0.000220819	0.00225007
12.8487	12.6632	0.00033432	0.00302132
12.8492	12.6628	0.000172807	0.00424514
12.8497	12.6623	-0.00154934	0.00369572
12.8501	12.6619	-0.000275939	0.00282794
12.8506	12.6614	0.00021315	0.0022985
12.8511	12.6609	0.000213417	0.00308295
12.8516	12.6604	0.00014593	0.0043815
12.852	12.66	-0.00144377	0.00382527
12.8525	12.6595	-0.000341357	0.00280803
12.853	12.659	0.000522783	0.00228088
12.8534	12.6586	0.000165602	0.00309261
12.8539	12.6581	0.000138261	0.00431644
12.8544	12.6576	-0.00134734	0.00370399
12.8549	12.6571	-0.000382039	0.00290922
12.8553	12.6567	0.000441491	0.00232775
12.8558	12.6562	8.12422e-05	0.00307967
12.8563	12.6557	0.000206283	0.00431005
12.8567	12.6552	-0.00134581	0.00366351
12.8572	12.6548	-0.000390172	0.00279745
12.8577	12.6543	0.000500507	0.0024115
12.8582	12.6538	2.01574e-05	0.00303828
12.8586	12.6533	9.50465e-05	0.00425416
12.8591	12.6529	-0.0013144	0.00366523
12.8596	12.6524	-0.000298678	0.00278049
12.8601	12.6519	0.000505108	0.00226424
12.8605	12.6515	-4.37275e-05	0.00307114
12.861	12.651	2.80939e-05	0.00428111
12.8615	12.6505	-0.00128679	0.0036867
12.8619	12.65	-0.000426983	0.00274607
12.8624	12.6496	0.000539654	0.00237897
12.8629	12.6491	0.000154865	0.00310491
12.8634	12.6486	-0.000181039	0.00437608
12.8638	12.6482	-0.00133353	0.00368547
12.8643	12.6477	-0.000441055	0.00260021
12.8648	12.6472	0.000619947	0.0023838
12.8652	12.6467	3.0894e-05	0.00335106
12.8657	12.6462	-3.71285e-05	0.00441952
12.8662	12.6458	-0.00123744	0.00368252
12.8667	12.6453	-0.000459728	0.00261718
12.8671	12.6448	0.000597672	0.00249836
12.8676	12.6443	8.83762e-05	0.00315006
12.8681	12.6438	-6.18485e-06	0.00428358
12.8686	12.6434	-0.00109219	0.00361009
12.869	12.6429	-0.000418315	0.00267258
12.8695	12.6425	0.000740048	0.00262619
12.87	12.642	-2.66593e-05	0.00328985
12.8704	12.6415	-0.000244995	0.0042853
12.8709	12.6411	-0.00110013	0.00365417
12.8714	12.6406	-0.000427518	0.00257481
12.8719	12.6401	0.00075412	0.00259145
12.8723	12.6396	1.5021e-05	0.00328985
12.8728	12.6392	-0.000242659	0.00443632
12.8733	12.6387	-0.00100143	0.0037194
12.8737	12.6383	-0.000489138	0.00248811
12.8742	12.6378	0.000850482	0.00256392
12.8747	12.6373	-6.83397e-05	0.00320627
12.8752	12.6368	-0.000101013	0.00430881
12.8756	12.6364	-0.00100963	0.00361959
12.8761	12.6359	-0.000502675	0.00251098
12.8766	12.6354	0.000782531	0.00256515
12.8771	12.6349	-2.20579e-05	0.00335057
12.8775	12.6344	-0.000286408	0.0042358
12.878	12.634	-0.00104058	0.00360263
12.8785	12.6335	-0.000517014	0.00234332
12.8789	12.633	0.00088123	0.00253949
12.8794	12.6326	-4.78652e-05	0.00335106
12.8799	12.6321	-0.000214051	0.00424621
12.8804	12.6316	-0.000980491	0.00357493
12.8808	12.6312	-0.000517745	0.00235857
12.8813	12.6307	0.000884494	0.00270764
12.8818	12.6302	2.3225e-05	0.00344538
12.8822	12.6297	-0.000418048	0.00434634
12.8827	12.6293	-0.000854184	0.00369309
12.8832	12.6288	-0.000527483	0.00236184
12.8837	12.6284	0.000883227	0.00268707
12.8841	12.6279	-0.000170302	0.00350938
12.8846	12.6274	-0.000396575	0.00430865
12.8851	12.6269	-0.00078156	0.00348962
12.8856	12.6264	-0.000582165	0.00234816
12.886	12.626	0.00088016	0.00256096
12.8865	12.6255	-4.04636e-05	0.00346734
12.887	12.625	-0.000545621	0.00435069
12.8874	12.6245	-0.000733013	0.00358271
12.8879	12.624	-0.000493472	0.00235406
12.8884	12.6236	0.000933575	0.00265594
12.8889	12.6231	-4.96168e-08	0.0034521
12.8893	12.6226	-0.000624113	0.00423736
12.8898	12.6222	-0.000892797	0.00355453
12.8903	12.6217	-0.000579365	0.00228572
12.8907	12.6212	0.00094178	0.00264455
12.8912	12.6207	-1.89903e-05	0.00350798
12.8917	12.6203	-0.000639451	0.00424826
12.8922	12.6198	-0.000659658	0.00345038
12.8926	12.6193	-0.000766757	0.00217534
12.8931	12.6189	0.000942315	0.00270436
12.8936	12.6184	-8.00751e-05	0.00352667
12.8941	12.6179	-0.000729946	0.00422662
12.8945	12.6174	-0.000761424	0.0035315
12.895	12.617	-0.000640985	0.00210168
12.8955	12.6165	0.00102127	0.00271584
12.8959	12.616	-0.000141695	0.00353552
12.8964	12.6155	-0.000631515	0.00423671
12.8969	12.6151	-0.000686999	0.00344136
12.8974	12.6146	-0.000687534	0.00222688
12.8978	12.6141	0.000947915	0.00272879
12.8983	12.6136	-3.86623e-05	0.00353257
12.8988	12.6132	-0.000765491	0.00420343
