# 1304     AichiSR QXAFS
# Start     : 8.9544
# End       : 9.0544
# Dir       : Backward
# Points    : 300
# ScanTime  : 1.01549
# Date      : 13.04.23 23:07
# Ring Cur. : 0.9[mA]
12.7557	12.6122	0.000119587	0.00422818
12.7562	12.6127	-0.00148438	0.00373824
12.7566	12.6131	-0.000298143	0.00296372
12.7571	12.6136	0.000162802	0.00216944
12.7576	12.6141	0.00042535	0.00283482
12.7581	12.6146	0.000186807	0.00421916
12.7585	12.615	-0.00145804	0.00378151
12.759	12.6155	-0.000323487	0.00298535
12.7595	12.616	0.000205481	0.00215649
12.7599	12.6165	0.000297509	0.00297773
12.7604	12.6169	0.000124189	0.00419951
12.7609	12.6174	-0.00146878	0.00372546
12.7614	12.6179	-0.000387104	0.00288308
12.7618	12.6184	0.000198347	0.00220164
12.7623	12.6188	0.000371934	0.00294348
12.7628	12.6193	0.000277302	0.00421712
12.7632	12.6198	-0.00139389	0.00364606
12.7637	12.6202	-0.000310146	0.00291422
12.7642	12.6207	0.00035706	0.00237913
12.7647	12.6212	0.000257363	0.00300559
12.7651	12.6217	0.000227221	0.0042249
12.7656	12.6221	-0.00139136	0.00360574
12.7661	12.6226	-0.000280005	0.00279246
12.7666	12.6231	0.000430487	0.00218452
12.767	12.6235	0.000103447	0.00299732
12.7675	12.624	0.000149532	0.00427472
12.768	12.6245	-0.00142023	0.00373046
12.7684	12.625	-0.000352362	0.00264316
12.7689	12.6254	0.000427419	0.00231621
12.7694	12.6259	0.000192943	0.00301976
12.7699	12.6264	0.000199613	0.00425792
12.7703	12.6269	-0.00135501	0.00358534
12.7708	12.6274	-0.000451524	0.00275246
12.7713	12.6278	0.000473166	0.00229285
12.7717	12.6283	0.000164603	0.00315054
12.7722	12.6288	0.000120122	0.00425309
12.7727	12.6292	-0.00127579	0.00365728
12.7732	12.6297	-0.00024446	0.00281393
12.7736	12.6302	0.000606339	0.0022046
12.7741	12.6306	-4.5065e-05	0.00304607
12.7746	12.6311	4.80334e-05	0.00424965
12.7751	12.6316	-0.00122417	0.00376111
12.7755	12.6321	-0.000258264	0.00260161
12.776	12.6325	0.000570063	0.00234595
12.7765	12.633	0.000220622	0.00314292
12.7769	12.6335	-3.25271e-05	0.00419827
12.7774	12.6339	-0.00124791	0.00361632
12.7779	12.6344	-0.000356161	0.00256268
12.7784	12.6349	0.000606874	0.0024056
12.7788	12.6354	6.43703e-05	0.00302583
12.7793	12.6358	4.2897e-05	0.00425105
12.7798	12.6363	-0.00121343	0.00353461
12.7802	12.6368	-0.00037717	0.00262743
12.7807	12.6373	0.000790468	0.00235562
12.7812	12.6377	5.79676e-05	0.00320299
12.7817	12.6382	-0.000114086	0.00419065
12.7821	12.6387	-0.00105411	0.00359673
12.7826	12.6391	-0.000371766	0.00256875
12.7831	12.6396	0.000701971	0.00240667
12.7836	12.64	2.44913e-05	0.00327477
12.784	12.6405	-0.000177971	0.00411952
12.7845	12.641	-0.00107099	0.00353756
12.785	12.6415	-0.000298143	0.00249402
12.7854	12.6419	0.000857153	0.00249525
12.7859	12.6424	1.19533e-05	0.00320815
12.7864	12.6429	-0.00027947	0.00432438
12.7869	12.6433	-0.000987697	0.00361557
12.7873	12.6438	-0.000464062	0.00237553
12.7878	12.6443	0.000820074	0.00254663
12.7883	12.6447	2.7505e-06	0.0033808
12.7887	12.6452	-0.000311948	0.00418705
12.7892	12.6457	-0.0010155	0.00353413
12.7897	12.6462	-0.000409647	0.00236029
12.7902	12.6467	0.000923106	0.00252778
12.7906	12.6471	1.40222e-05	0.00333565
12.7911	12.6476	-0.000390707	0.00430554
12.7916	12.6481	-0.000973821	0.00355813
12.7921	12.6486	-0.000481736	0.00239454
12.7925	12.649	0.000878893	0.0025921
12.793	12.6495	7.35192e-06	0.00338687
12.7935	12.65	-0.000573497	0.00417991
12.7939	12.6504	-0.000984094	0.00352339
12.7944	12.6509	-0.000541287	0.002279
12.7949	12.6514	0.000880962	0.00262979
12.7954	12.6519	1.5021e-05	0.0033772
12.7958	12.6524	-0.000431852	0.00425776
12.7963	12.6528	-0.000789764	0.00347668
12.7968	12.6533	-0.000601106	0.00223606
12.7972	12.6538	0.000944847	0.00255441
12.7977	12.6542	1.0687e-05	0.00327321
12.7982	12.6547	-0.000518548	0.00410502
12.7987	12.6552	-0.000859321	0.00346595
12.7991	12.6557	-0.000569627	0.0023416
12.7996	12.6561	0.00105401	0.00265856
12.8001	12.6566	-0.000104081	0.00340367
12.8006	12.6571	-0.000503941	0.00414566
12.801	12.6576	-0.000762691	0.00337049
12.8015	12.6581	-0.000530551	0.0022454
12.802	12.6585	0.0010154	0.00266495
12.8024	12.659	-7.88088e-05	0.00341162
12.8029	12.6595	-0.000463795	0.00417836
12.8034	12.6599	-0.000674996	0.00339744
12.8039	12.6604	-0.000523881	0.0021937
12.8043	12.6609	0.00102514	0.00271617
12.8048	12.6613	2.85577e-05	0.00348291
12.8053	12.6618	-0.000689068	0.00415844
12.8057	12.6623	-0.000599037	0.0034834
12.8062	12.6627	-0.000688533	0.00214715
12.8067	12.6632	0.000936179	0.00263086
12.8072	12.6637	-1.56552e-05	0.00362008
12.8076	12.6641	-0.000661923	0.00402455
12.8081	12.6646	-0.000595702	0.00348511
12.8086	12.6651	-0.000619512	0.00218017
12.8091	12.6656	0.00104201	0.00271633
12.8095	12.666	-2.07916e-05	0.00354658
12.81	12.6665	-0.000796702	0.004096
12.8105	12.667	-0.000561494	0.00341801
12.8109	12.6675	-0.000710006	0.00221287
12.8114	12.6679	0.00099573	0.0027414
12.8119	12.6684	-0.0001517	0.00352527
12.8124	12.6689	-0.000828912	0.00403775
12.8128	12.6693	-0.000534153	0.00328723
12.8133	12.6698	-0.000617175	0.00215027
12.8138	12.6703	0.000967587	0.00275058
12.8142	12.6707	4.13632e-05	0.00369244
12.8147	12.6712	-0.000925274	0.00416574
12.8152	12.6717	-0.000459728	0.00346299
12.8157	12.6721	-0.000507544	0.00207758
12.8161	12.6726	0.00085462	0.00273141
12.8166	12.6731	-6.62708e-05	0.00362926
12.8171	12.6735	-0.000909669	0.00408806
12.8176	12.674	-0.000491403	0.00337409
12.818	12.6745	-0.000406312	0.0021034
12.8185	12.675	0.000876825	0.00269953
12.819	12.6755	-2.58568e-05	0.00360107
12.8194	12.6759	-0.000944215	0.00405971
12.8199	12.6764	-0.000456928	0.00318882
12.8204	12.6769	-0.000421383	0.00216584
12.8209	12.6774	0.00083361	0.00273829
12.8213	12.6779	1.42897e-05	0.00376036
12.8218	12.6783	-0.00094648	0.00404087
12.8223	12.6788	-0.000540021	0.00318603
12.8227	12.6793	-0.000427251	0.00217018
12.8232	12.6797	0.000799599	0.00279401
12.8237	12.6802	7.35732e-05	0.00380765
12.8242	12.6807	-0.00103111	0.00400227
12.8246	12.6811	-0.000373835	0.00307876
12.8251	12.6816	-0.000383234	0.00210651
12.8256	12.6821	0.000634483	0.00277984
12.8261	12.6826	-2.8657e-05	0.00386279
12.8265	12.683	-0.00114181	0.00397006
12.827	12.6835	-0.000384037	0.00322446
12.8275	12.684	-0.000115085	0.00217051
12.8279	12.6844	0.000711173	0.00281425
12.8284	12.6849	0.000139259	0.00383944
12.8289	12.6854	-0.00127018	0.00382387
12.8294	12.6859	-0.000377901	0.00314882
12.8298	12.6864	-0.000134757	0.00212052
12.8303	12.6868	0.000550391	0.00279729
12.8308	12.6873	5.92339e-05	0.00402439
12.8312	12.6878	-0.00134327	0.0037507
12.8317	12.6883	-0.000380505	0.00294594
12.8322	12.6887	-0.000126089	0.00215478
12.8327	12.6892	0.000658025	0.00273845
12.8331	12.6897	0.000121121	0.00384658
12.8336	12.6901	-0.00132333	0.0039154
12.8341	12.6906	-0.000364365	0.00302304
12.8346	12.6911	-0.000232992	0.00212756
12.835	12.6915	0.000531183	0.00275681
12.8355	12.692	7.33057e-05	0.00396383
12.836	12.6925	-0.00130313	0.00386059
12.8364	12.6929	-0.000375369	0.00314195
12.8369	12.6934	-7.98616e-06	0.00219042
12.8374	12.6939	0.000472631	0.00277238
12.8379	12.6943	0.000173806	0.00392598
12.8383	12.6948	-0.00133027	0.00380207
12.8388	12.6953	-0.000386105	0.00312998
12.8393	12.6958	7.99759e-05	0.00226564
12.8397	12.6962	0.000505108	0.00289972
12.8402	12.6967	0.000126258	0.00403512
12.8407	12.6972	-0.00145191	0.0038651
12.8412	12.6977	-0.000376368	0.0030028
12.8416	12.6981	6.87042e-05	0.00219247
12.8421	12.6986	0.000440421	0.00289988
12.8426	12.6991	0.000239224	0.00408167
12.8431	12.6995	-0.00149025	0.00375053
12.8435	12.7	-0.00035443	0.00288292
12.844	12.7005	6.23015e-05	0.00223402
12.8445	12.7009	0.00029931	0.00285334
12.8449	12.7014	0.000247625	0.00419221
12.8454	12.7019	-0.00144811	0.00379724
12.8459	12.7024	-0.000401907	0.00283777
12.8464	12.7028	0.000175072	0.0021442
12.8468	12.7033	0.000404412	0.00286686
12.8473	12.7038	0.000213685	0.00410363
12.8478	12.7042	-0.00147698	0.00367253
12.8482	12.7047	-0.000267735	0.00297569
12.8487	12.7052	0.000118856	0.0021828
12.8492	12.7057	0.000257166	0.00285957
12.8497	12.7062	0.000231823	0.00418549
12.8501	12.7067	-0.00141509	0.0038083
12.8506	12.7071	-0.000335954	0.00273174
12.8511	12.7076	0.000237691	0.00217174
12.8516	12.7081	0.000279638	0.00303001
12.852	12.7086	0.000310315	0.00421277
12.8525	12.709	-0.00149819	0.0037457
12.853	12.7095	-0.000322417	0.0027428
12.8534	12.7099	0.000328988	0.00222017
12.8539	12.7104	0.000169739	0.00300001
12.8544	12.7109	0.000223886	0.00425432
12.8549	12.7114	-0.00138442	0.00365573
12.8553	12.7119	-0.000256463	0.00286579
12.8558	12.7123	0.0003676	0.00219198
12.8563	12.7128	8.43098e-05	0.0030727
12.8567	12.7132	0.000223886	0.00409257
12.8572	12.7137	-0.00122924	0.0036604
12.8577	12.7142	-0.000309415	0.00273378
12.8582	12.7147	0.000389805	0.00228679
12.8586	12.7151	0.000102448	0.00303533
12.8591	12.7156	0.000187075	0.00415173
12.8596	12.7161	-0.00135988	0.0036663
12.8601	12.7166	-0.000426787	0.00272256
12.8605	12.7171	0.000525583	0.00222279
12.861	12.7175	8.17772e-05	0.00297912
12.8615	12.718	4.62321e-05	0.004273
12.8619	12.7185	-0.00126965	0.00359017
12.8624	12.7189	-0.000296342	0.00271649
12.8629	12.7194	0.000591001	0.00236168
12.8634	12.7199	0.000174341	0.00314399
12.8638	12.7203	8.81799e-05	0.00411936
12.8643	12.7208	-0.00128345	0.00357493
12.8648	12.7213	-0.000401176	0.00266823
12.8652	12.7217	0.000523246	0.00238971
12.8657	12.7222	1.73573e-05	0.00309917
12.8662	12.7227	2.93602e-05	0.00415484
12.8667	12.7231	-0.00118756	0.00363253
12.8671	12.7236	-0.000391706	0.00266823
12.8676	12.7241	0.000555991	0.0025236
12.8681	12.7245	0.000112453	0.00305573
12.8686	12.725	-4.5065e-05	0.00425465
12.869	12.7255	-0.0011114	0.00361369
12.8695	12.726	-0.000445924	0.0025622
12.87	12.7265	0.000637551	0.00252049
12.8704	12.7269	0.00011932	0.00328755
12.8709	12.7274	-0.00010335	0.00424466
12.8714	12.7279	-0.00111447	0.00356108
12.8719	12.7284	-0.00051161	0.00251147
12.8723	12.7288	0.000794266	0.00250427
12.8728	12.7293	4.95672e-05	0.00338375
12.8733	12.7297	-0.000267467	0.00429636
12.8737	12.7302	-0.000946213	0.00362631
12.8742	12.7307	-0.00039711	0.00246755
12.8747	12.7312	0.000835412	0.00252081
12.8752	12.7317	-1.05188e-05	0.00323848
12.8756	12.7321	-0.000242195	0.00421868
12.8761	12.7326	-0.000976425	0.00360263
12.8766	12.7331	-0.000387372	0.00242052
12.8771	12.7335	0.000770261	0.00248468
12.8775	12.734	-3.89298e-05	0.00324224
12.878	12.7345	-0.000448991	0.00420917
12.8785	12.735	-0.00103904	0.00352994
12.8789	12.7354	-0.000519814	0.00231653
12.8794	12.7359	0.000855084	0.00251786
12.8799	12.7364	0.000166404	0.00325486
12.8804	12.7369	-0.000457392	0.00407839
12.8808	12.7374	-0.000818175	0.00347856
12.8813	12.7378	-0.000587034	0.00238675
12.8818	12.7383	0.000975059	0.00255613
12.8822	12.7388	-8.56754e-05	0.00325716
12.8827	12.7392	-0.00048607	0.00412108
12.8832	12.7397	-0.000816374	0.00343309
12.8837	12.7402	-0.000569895	0.00221238
12.8841	12.7407	0.0010052	0.00265422
12.8846	12.7411	-4.96665e-05	0.0033509
12.8851	12.7416	-0.000475601	0.00425293
12.8856	12.7421	-0.000810506	0.00352683
12.886	12.7425	-0.00061104	0.00220164
12.8865	12.743	0.00107089	0.00261341
12.887	12.7435	-8.69417e-05	0.00333221
12.8874	12.7439	-0.000569895	0.00430071
12.8879	12.7444	-0.000728679	0.00345333
12.8884	12.7449	-0.000557892	0.00220836
12.8889	12.7454	0.000926709	0.00262104
12.8893	12.7459	-0.000142694	0.00349274
12.8898	12.7463	-0.000597236	0.0041564
12.8903	12.7468	-0.000632781	0.00341441
12.8907	12.7473	-0.000547155	0.00226703
12.8912	12.7478	0.00113918	0.00273362
12.8917	12.7482	-9.97471e-05	0.00349118
12.8922	12.7487	-0.000623578	0.00424235
12.8926	12.7492	-0.000658392	0.00344522
12.8931	12.7496	-0.000710809	0.00222172
12.8936	12.7501	0.00098066	0.0026838
12.8941	12.7505	1.5021e-05	0.00351142
12.8945	12.751	-0.000711273	0.00409568
12.895	12.7515	-0.000675728	0.0034362
12.8955	12.752	-0.000657857	0.00214109
12.8959	12.7524	0.00102794	0.00265094
12.8964	12.7529	-0.000128354	0.00359673
12.8969	12.7533	-0.000733548	0.00416418
12.8974	12.7538	-0.000522079	0.00333812
12.8978	12.7543	-0.000695935	0.00212348
12.8983	12.7548	0.0010228	0.00266495
12.8988	12.7552	-0.000152164	0.00366056
