# 1304     AichiSR QXAFS
# Start     : 8.9544
# End       : 9.0544
# Dir       : Backward
# Points    : 300
# ScanTime  : 1.01549
# Date      : 13.04.23 23:08
# Ring Cur. : 0.9[mA]
12.7557	12.6122	0.00052025	0.00286424
12.7562	12.6127	0.000219285	0.00412059
12.7566	12.6131	-0.00137602	0.0037012
12.7571	12.6136	-0.000342891	0.00285022
12.7576	12.6141	7.0238e-05	0.00227605
12.7581	12.6146	0.000348392	0.00294487
12.7585	12.615	0.00028424	0.00413444
12.759	12.6155	-0.00139082	0.0037071
12.7595	12.616	-0.000186907	0.00283294
12.7599	12.6165	0.00046143	0.00230612
12.7604	12.6169	0.000269704	0.00294127
12.7609	12.6174	0.000223619	0.00417803
12.7614	12.6179	-0.00140389	0.0037471
12.7618	12.6184	-0.00031168	0.0027909
12.7623	12.6188	0.00024643	0.00224041
12.7628	12.6193	0.00022262	0.00291406
12.7632	12.6198	0.000214683	0.00425744
12.7637	12.6202	-0.0014381	0.00363361
12.7642	12.6207	-0.000373032	0.0028004
12.7647	12.6212	0.000349195	0.00234332
12.7651	12.6217	0.000121121	0.00302894
12.7656	12.6221	0.000323049	0.00435413
12.7661	12.6226	-0.00151099	0.00364794
12.7666	12.6231	-0.00030608	0.00283933
12.767	12.6235	0.000517914	0.00227466
12.7675	12.624	0.000160001	0.00304746
12.768	12.6245	0.000239224	0.00422286
12.7684	12.625	-0.00128092	0.00378962
12.7689	12.6254	-0.000279738	0.00274124
12.7694	12.6259	0.000390073	0.00227047
12.7699	12.6264	4.59646e-05	0.00305525
12.7703	12.6269	0.000114986	0.00428669
12.7708	12.6274	-0.00141103	0.0035614
12.7713	12.6278	-0.000352094	0.00271322
12.7717	12.6283	0.000496173	0.00224991
12.7722	12.6288	2.62926e-05	0.00308032
12.7727	12.6292	0.000195011	0.0042263
12.7732	12.6297	-0.0012239	0.00360542
12.7736	12.6302	-0.000289208	0.00265545
12.7741	12.6306	0.000580265	0.00236012
12.7746	12.6311	-1.56552e-05	0.00311473
12.7751	12.6316	9.83816e-05	0.00426554
12.7755	12.6321	-0.0012075	0.00361369
12.776	12.6325	-0.000384304	0.00264364
12.7765	12.633	0.000652354	0.00236619
12.7769	12.6335	5.89664e-05	0.00311285
12.7774	12.6339	-4.75977e-05	0.00412387
12.7779	12.6344	-0.00106305	0.00364048
12.7784	12.6349	-0.000344158	0.00257841
12.7788	12.6354	0.000705573	0.00237741
12.7793	12.6358	-1.38539e-05	0.00309138
12.7798	12.6363	-8.31427e-05	0.00416311
12.7802	12.6368	-0.00111573	0.00344587
12.7807	12.6373	-0.000457659	0.00247345
12.7812	12.6377	0.000712975	0.0024333
12.7817	12.6382	-4.04636e-05	0.00324642
12.7821	12.6387	-6.4737e-05	0.0041877
12.7826	12.6391	-0.00109706	0.00364139
12.7831	12.6396	-0.000341625	0.00244575
12.7836	12.6401	0.000756653	0.00247099
12.784	12.6405	-4.37987e-05	0.00319365
12.7845	12.641	-0.00023219	0.0042853
12.785	12.6415	-0.00109426	0.00361868
12.7854	12.6419	-0.00043212	0.00243936
12.7859	12.6424	0.000859953	0.00247689
12.7864	12.6429	4.55181e-06	0.00330263
12.7869	12.6433	-0.0002644	0.00414845
12.7873	12.6438	-0.00103111	0.00361213
12.7878	12.6443	-0.000505207	0.00229146
12.7883	12.6447	0.00084128	0.00246787
12.7887	12.6452	-5.7068e-05	0.00320127
12.7892	12.6457	-0.00028227	0.00423564
12.7897	12.6462	-0.000972359	0.00349676
12.7902	12.6467	-0.000545354	0.00224524
12.7906	12.6471	0.000883762	0.00240544
12.7911	12.6476	1.80886e-05	0.00340056
12.7916	12.6481	-0.000314551	0.00418893
12.7921	12.6486	-0.00087646	0.00363377
12.7925	12.649	-0.000510611	0.00236823
12.793	12.6495	0.000986795	0.00259973
12.7935	12.65	-6.68058e-05	0.00340818
12.7939	12.6505	-0.000347225	0.00421744
12.7944	12.6509	-0.000827842	0.00345505
12.7949	12.6514	-0.000495808	0.00209905
12.7954	12.6519	0.00104401	0.00256564
12.7958	12.6524	-0.000123557	0.00345939
12.7963	12.6528	-0.000479668	0.00414051
12.7968	12.6533	-0.000874659	0.00352167
12.7972	12.6538	-0.000519012	0.00218312
12.7977	12.6542	0.00109183	0.00264955
12.7982	12.6547	-0.00016497	0.00348807
12.7987	12.6552	-0.000582968	0.00408494
12.7991	12.6557	-0.00086419	0.00350331
12.7996	12.6561	-0.000613911	0.00221893
12.8001	12.6566	0.00102434	0.00262292
12.8006	12.6571	-8.62104e-05	0.00337205
12.801	12.6576	-0.000520545	0.00412542
12.8015	12.6581	-0.000745016	0.0034303
12.802	12.6585	-0.000588835	0.00221721
12.8024	12.659	0.00111843	0.00269797
12.8029	12.6595	8.61823e-06	0.00353773
12.8034	12.6599	-0.000591368	0.00413305
12.8039	12.6604	-0.00073148	0.003399
12.8043	12.6609	-0.000650723	0.00214887
12.8048	12.6613	0.00109723	0.00265873
12.8053	12.6618	-0.000151897	0.00342031
12.8057	12.6623	-0.000764492	0.00412091
12.8062	12.6627	-0.00070594	0.00348356
12.8067	12.6632	-0.000557357	0.00210839
12.8072	12.6637	0.000990861	0.00262635
12.8076	12.6641	-0.000171372	0.00353617
12.8081	12.6646	-0.000793099	0.00407405
12.8086	12.6651	-0.000645586	0.00341129
12.8091	12.6656	-0.000576298	0.00211258
12.8095	12.666	0.000949181	0.00273501
12.81	12.6665	-5.91368e-05	0.00368563
12.8105	12.667	-0.000834512	0.00411141
12.8109	12.6675	-0.000549224	0.00341752
12.8114	12.6679	-0.000614643	0.00209766
12.8119	12.6684	0.00107242	0.00275074
12.8124	12.6689	9.42073e-06	0.00368793
12.8128	12.6693	-0.000781828	0.00409117
12.8133	12.6698	-0.000566827	0.0034267
12.8138	12.6703	-0.000476333	0.00211413
12.8142	12.6707	0.000870689	0.00285039
12.8147	12.6712	-3.38473e-06	0.00374119
12.8152	12.6717	-0.00093981	0.00399588
12.8157	12.6721	-0.00048887	0.00328518
12.8161	12.6726	-0.00050601	0.00212552
12.8166	12.6731	0.000891699	0.00276975
12.8171	12.6735	-0.000119687	0.00363688
12.8176	12.674	-0.000973554	0.00412961
12.818	12.6745	-0.000423916	0.00325421
12.8185	12.675	-0.000354163	0.00213814
12.819	12.6755	0.000805734	0.00273985
12.8194	12.6759	-0.000109485	0.00374226
12.8199	12.6764	-0.000957484	0.00397129
12.8204	12.6769	-0.000446655	0.00316546
12.8209	12.6774	-0.000397377	0.00218468
12.8213	12.6779	0.000849751	0.00275198
12.8218	12.6783	-3.35259e-05	0.00385764
12.8223	12.6788	-0.00108966	0.00405552
12.8227	12.6793	-0.000423184	0.00325035
12.8232	12.6797	-0.000362563	0.00219418
12.8237	12.6802	0.000729312	0.00273362
12.8242	12.6807	5.18323e-05	0.0037616
12.8246	12.6812	-0.00112954	0.00402095
12.8251	12.6816	-0.000358497	0.00322028
12.8256	12.6821	-0.000333688	0.00217239
12.8261	12.6826	0.000633484	0.00288431
12.8265	12.683	2.93602e-05	0.00386231
12.827	12.6835	-0.00117429	0.00396163
12.8275	12.684	-0.000431121	0.00304107
12.8279	12.6844	-0.000181574	0.0021624
12.8284	12.6849	0.000576662	0.00276336
12.8289	12.6854	0.000153599	0.00400071
12.8294	12.6859	-0.00117682	0.00395728
12.8298	12.6864	-0.000346226	0.00311613
12.8303	12.6868	-9.92833e-05	0.00213158
12.8308	12.6873	0.000614008	0.00282016
12.8312	12.6878	0.000126721	0.00393983
12.8317	12.6883	-0.00132767	0.00387213
12.8322	12.6887	-0.000413446	0.0031485
12.8327	12.6892	-0.000156498	0.00222639
12.8331	12.6897	0.000483902	0.0028091
12.8336	12.6901	7.61058e-05	0.00313932
12.8341	12.6906	-0.00130926	0.00398514
12.8346	12.6911	-0.00045106	0.00310679
12.835	12.6915	-7.42074e-05	0.00227171
12.8355	12.692	0.000611743	0.00292651
12.836	12.6925	0.000142327	0.00400833
12.8364	12.6929	-0.00142096	0.00389656
12.8369	12.6934	-0.000324753	0.00304795
12.8374	12.6939	-0.000116619	0.00219214
12.8379	12.6943	0.000371399	0.00289414
12.8383	12.6948	4.36995e-05	0.00405241
12.8388	12.6953	-0.00134968	0.00387943
12.8393	12.6958	-0.000239859	0.00308236
12.8397	12.6962	-2.33242e-05	0.00217518
12.8402	12.6967	0.000347393	0.00290783
12.8407	12.6972	0.000168937	0.00402111
12.8412	12.6977	-0.00148285	0.00371161
12.8416	12.6981	-0.000322952	0.0029788
12.8421	12.6986	9.99154e-05	0.0022155
12.8426	12.6991	0.000361929	0.00301198
12.8431	12.6995	8.40423e-05	0.00411141
12.8435	12.7	-0.00144324	0.00368171
12.844	12.7005	-0.000278471	0.00295733
12.8445	12.7009	0.000111187	0.002142
12.8449	12.7014	0.000354795	0.00292184
12.8454	12.7019	0.000236424	0.00426039
12.8459	12.7024	-0.00148158	0.00375177
12.8464	12.7028	-0.00041498	0.00288587
12.8468	12.7033	0.000203679	0.00224057
12.8473	12.7038	0.000251762	0.00290939
12.8478	12.7042	0.000145198	0.00417057
12.8482	12.7047	-0.00144117	0.00376079
12.8487	12.7052	-0.000267467	0.00285957
12.8492	12.7057	0.000225955	0.00225909
12.8497	12.7062	0.000298775	0.00305804
12.8501	12.7067	0.00024363	0.00417959
12.8506	12.7071	-0.00152867	0.00375504
12.8511	12.7076	-0.00031835	0.00291636
12.8516	12.7081	0.000338191	0.00239856
12.852	12.7086	0.000165869	0.0029293
12.8525	12.709	0.000126721	0.00427333
12.853	12.7095	-0.00147852	0.00363049
12.8534	12.71	-0.000285338	0.0026992
12.8539	12.7104	0.000286576	0.00224196
12.8544	12.7109	0.000153866	0.0029992
12.8549	12.7114	0.000207549	0.00414738
12.8553	12.7119	-0.0014251	0.00375161
12.8558	12.7123	-0.000424718	0.00268707
12.8563	12.7128	0.000500043	0.00232448
12.8567	12.7132	0.00025483	0.00294143
12.8572	12.7137	0.000236424	0.00418893
12.8577	12.7142	-0.00142483	0.00367129
12.8582	12.7147	-0.000295343	0.00265594
12.8586	12.7151	0.000430487	0.00227793
12.8591	12.7156	2.44913e-05	0.00309852
12.8596	12.7161	0.00018761	0.00414271
12.8601	12.7166	-0.00134381	0.00360714
12.8605	12.7171	-0.000294077	0.00266184
12.861	12.7175	0.000406944	0.00227187
12.8615	12.718	0.000146928	0.00315382
12.8619	12.7185	0.000203216	0.00417385
12.8624	12.7189	-0.00126045	0.00369932
12.8629	12.7194	-0.000388905	0.0025222
12.8634	12.7199	0.000569796	0.00238348
12.8638	12.7203	9.88454e-05	0.00308
12.8643	12.7208	7.0238e-05	0.00418582
12.8648	12.7213	-0.00114948	0.00364483
12.8652	12.7218	-0.000399642	0.00264176
12.8657	12.7222	0.000660825	0.00237274
12.8662	12.7227	0.000111918	0.00319725
12.8667	12.7231	-6.06706e-05	0.00425556
12.8671	12.7236	-0.00109913	0.00353789
12.8676	12.7241	-0.000313749	0.00254695
12.8681	12.7245	0.000752051	0.00243314
12.8686	12.725	6.51728e-05	0.00327354
12.869	12.7255	-3.12608e-05	0.00433823
12.8695	12.726	-0.00110626	0.00362614
12.87	12.7265	-0.000412911	0.00265873
12.8704	12.7269	0.000748787	0.0024596
12.8709	12.7274	7.66408e-05	0.0031544
12.8714	12.7279	-0.0002644	0.00424466
12.8719	12.7284	-0.00105032	0.00358443
12.8723	12.7288	-0.000498341	0.00245649
12.8728	12.7293	0.000715507	0.00250492
12.8733	12.7297	-2.45905e-05	0.00321824
12.8737	12.7302	-0.000196912	0.00421089
12.8742	12.7307	-0.00107459	0.00344538
12.8747	12.7312	-0.000454592	0.00243469
12.8752	12.7317	0.000767389	0.00252843
12.8756	12.7321	-2.35917e-05	0.00327026
12.8761	12.7326	-0.000227321	0.00422662
12.8766	12.7331	-0.000917338	0.00356682
12.8771	12.7335	-0.000499607	0.00230096
12.8775	12.734	0.000806804	0.00242584
12.878	12.7345	5.39012e-05	0.00336475
12.8785	12.735	-0.000337291	0.00417148
12.8789	12.7354	-0.000953614	0.00349708
12.8794	12.7359	-0.000502942	0.0023852
12.8799	12.7364	0.000872491	0.00257793
12.8804	12.7369	4.3432e-05	0.00329329
12.8808	12.7374	-0.000445656	0.00410937
12.8813	12.7378	-0.000944483	0.00358722
12.8818	12.7383	-0.000491938	0.00234472
12.8822	12.7388	0.00101667	0.00257481
12.8827	12.7392	-9.84808e-05	0.00323118
12.8832	12.7397	-0.000387639	0.0041564
12.8837	12.7402	-0.000867257	0.00346783
12.8841	12.7407	-0.000583967	0.00226065
12.8846	12.7411	0.00099013	0.00260268
12.8851	12.7416	-2.40555e-05	0.00336523
12.8856	12.7421	-0.000393239	0.00412575
12.886	12.7425	-0.000773427	0.00353289
12.8865	12.743	-0.000571429	0.00233382
12.887	12.7435	0.00101153	0.00256564
12.8874	12.7439	-0.00011002	0.00349069
12.8879	12.7444	-0.000462261	0.00422318
12.8884	12.7449	-0.00077316	0.00352323
12.8889	12.7454	-0.000596237	0.00212847
12.8893	12.7459	0.0011069	0.00268675
12.8898	12.7463	-1.6654e-05	0.00347422
12.8903	12.7468	-0.000599572	0.0042263
12.8907	12.7473	-0.000724809	0.00355297
12.8912	12.7478	-0.000596505	0.0021551
12.8917	12.7482	0.00105168	0.00270667
12.8922	12.7487	-6.70022e-05	0.00347873
12.8926	12.7492	-0.00050601	0.00418335
12.8931	12.7496	-0.000696737	0.00352199
12.8936	12.7501	-0.000607972	0.00220443
12.8941	12.7506	0.000926709	0.00275574
12.8945	12.751	-0.000206115	0.00344152
12.895	12.7515	-0.000800768	0.00416778
12.8955	12.752	-0.000739416	0.00337441
12.8959	12.7524	-0.00066986	0.002161
12.8964	12.7529	0.00103281	0.00271526
12.8969	12.7534	-0.000165433	0.00363999
12.8974	12.7538	-0.000733281	0.00410551
12.8978	12.7543	-0.000559158	0.00349708
12.8983	12.7548	-0.000574496	0.00209905
12.8988	12.7552	0.000961987	0.00272272
