# 1304     AichiSR QXAFS
# Start     : 8.9544
# End       : 9.0544
# Dir       : Forward
# Points    : 300
# ScanTime  : 1.01549
# Date      : 13.04.23 22:48
# Ring Cur. : 0.9[mA]
12.7557	12.756	0.000340723	0.00299002
12.7562	12.7555	7.20393e-05	0.00420966
12.7566	12.755	-0.00159608	0.00380052
12.7571	12.7545	-0.000425984	0.00289349
12.7576	12.7541	0.000169936	0.00223402
12.7581	12.7536	0.000276036	0.00304763
12.7585	12.7531	0.000176338	0.00429169
12.759	12.7527	-0.00150125	0.00375709
12.7595	12.7522	-0.000406312	0.00288898
12.7599	12.7517	0.000156934	0.00232464
12.7604	12.7513	0.000288841	0.00293988
12.7609	12.7508	0.000162534	0.00414583
12.7614	12.7503	-0.00157181	0.00379585
12.7618	12.7499	-0.000432583	0.00288694
12.7623	12.7494	0.000130592	0.00232727
12.7628	12.7489	0.000102983	0.0030509
12.7632	12.7485	0.000155132	0.00431971
12.7637	12.748	-0.00149159	0.00374447
12.7642	12.7475	-0.000448991	0.00297896
12.7647	12.747	0.000278568	0.00224975
12.7651	12.7466	0.000195011	0.00301805
12.7656	12.7461	0.00014593	0.004254
12.7661	12.7456	-0.0014205	0.00380675
12.7666	12.7451	-0.000336489	0.00275837
12.767	12.7447	0.000320516	0.00225098
12.7675	12.7442	0.000105783	0.00305181
12.768	12.7437	0.000134925	0.00424063
12.7684	12.7432	-0.00144044	0.00380315
12.7689	12.7428	-0.000420848	0.00284056
12.7694	12.7423	0.000449624	0.00235266
12.7699	12.7419	5.39012e-05	0.003099
12.7703	12.7414	2.52226e-05	0.00426882
12.7708	12.7409	-0.00128852	0.00372858
12.7713	12.7404	-0.000324753	0.00271354
12.7717	12.74	0.000394674	0.00237119
12.7722	12.7395	4.90322e-05	0.00317046
12.7727	12.739	-5.73355e-05	0.00429062
12.7732	12.7386	-0.00131666	0.00370506
12.7736	12.7381	-0.000467397	0.00270141
12.7741	12.7376	0.000525048	0.00238053
12.7746	12.7371	6.41028e-05	0.00327166
12.7751	12.7367	-0.00010895	0.00432331
12.7755	12.7362	-0.00128219	0.00370834
12.776	12.7357	-0.000445121	0.00266323
12.7765	12.7352	0.000487505	0.00244887
12.7769	12.7347	-4.35312e-05	0.00322839
12.7774	12.7342	-5.52667e-05	0.00431864
12.7779	12.7338	-0.00109986	0.00366163
12.7784	12.7333	-0.000562226	0.0026089
12.7788	12.7328	0.000636017	0.00244232
12.7793	12.7324	-1.07863e-05	0.00327461
12.7798	12.7319	-7.08723e-05	0.00436003
12.7802	12.7314	-0.00125278	0.0036881
12.7807	12.731	-0.000523881	0.00253262
12.7812	12.7305	0.000720109	0.00248607
12.7817	12.73	-4.47975e-05	0.0031703
12.7821	12.7295	-0.000105882	0.00441763
12.7826	12.7291	-0.00115615	0.00370834
12.7831	12.7286	-0.000514945	0.00252344
12.7836	12.7281	0.000733645	0.00250926
12.784	12.7277	-0.000110216	0.00331493
12.7845	12.7272	-0.000308149	0.00432766
12.785	12.7267	-0.00119296	0.00365261
12.7854	12.7262	-0.000485535	0.00262726
12.7859	12.7258	0.000775593	0.0025091
12.7864	12.7253	-2.79257e-05	0.00337565
12.7869	12.7248	-0.00041218	0.00431611
12.7873	12.7243	-0.00109273	0.00347529
12.7878	12.7239	-0.000549224	0.00246395
12.7883	12.7234	0.000875291	0.00247845
12.7887	12.7229	-8.4409e-05	0.00327117
12.7892	12.7225	-0.000384572	0.00427349
12.7897	12.722	-0.000962621	0.00354519
12.7902	12.7215	-0.000567362	0.00243486
12.7906	12.7211	0.000946916	0.00273813
12.7911	12.7206	-0.000207649	0.00343932
12.7916	12.7201	-0.000456126	0.00439444
12.7921	12.7196	-0.000959018	0.00364671
12.7925	12.7192	-0.000552488	0.00242707
12.793	12.7187	0.000834877	0.00269518
12.7935	12.7183	-0.000123022	0.00349585
12.7939	12.7178	-0.000592706	0.00421196
12.7944	12.7173	-0.000998166	0.0035206
12.7949	12.7168	-0.000627716	0.00237119
12.7954	12.7164	0.000950982	0.00268503
12.7958	12.7159	-0.000119152	0.00345644
12.7963	12.7154	-0.000602907	0.00422179
12.7968	12.7149	-0.000865456	0.00364483
12.7972	12.7144	-0.000590369	0.00234939
12.7977	12.714	0.000927244	0.00275665
12.7982	12.7135	-0.000133758	0.00350814
12.7987	12.713	-0.000764225	0.00427005
12.7991	12.7126	-0.000819442	0.00356543
12.7996	12.7121	-0.000640985	0.00228695
12.8001	12.7116	0.000978858	0.00268552
12.8006	12.7112	-0.000104349	0.00352462
12.801	12.7107	-0.000858518	0.00415689
12.8015	12.7102	-0.00084985	0.003517
12.802	12.7097	-0.000712343	0.00214388
12.8024	12.7093	0.000981391	0.00277844
12.8029	12.7088	-0.000137361	0.00356903
12.8034	12.7083	-0.000676798	0.00418598
12.8039	12.7079	-0.000690067	0.00351405
12.8043	12.7074	-0.000768558	0.00219821
12.8048	12.7069	0.00084795	0.00268552
12.8053	12.7064	-0.00013836	0.00360639
12.8057	12.7059	-0.000875658	0.00425932
12.8062	12.7055	-0.000641252	0.00345644
12.8067	12.705	-0.000615445	0.00219574
12.8072	12.7045	0.000894499	0.00284711
12.8076	12.704	-0.00022172	0.00359377
12.8081	12.7035	-0.000915804	0.00413755
12.8086	12.7031	-0.0005883	0.0033618
12.8091	12.7026	-0.000694936	0.00210716
12.8095	12.7022	0.000866355	0.0027151
12.81	12.7017	-7.18366e-06	0.00375209
12.8105	12.7012	-0.000989962	0.00411436
12.8109	12.7007	-0.000589834	0.00345628
12.8114	12.7002	-0.00052108	0.00219869
12.8119	12.6998	0.000905699	0.00278532
12.8124	12.6993	-8.74767e-05	0.0037893
12.8128	12.6989	-0.00108739	0.00408511
12.8133	12.6984	-0.000628714	0.00334311
12.8138	12.6979	-0.000670859	0.00217952
12.8142	12.6975	0.000793999	0.00280974
12.8147	12.697	-6.26682e-05	0.0037602
12.8152	12.6965	-0.00106512	0.00410068
12.8157	12.696	-0.000551222	0.00336196
12.8161	12.6956	-0.00052108	0.00223434
12.8166	12.6951	0.000756456	0.00284367
12.8171	12.6946	-4.22649e-05	0.00386886
12.8176	12.6941	-0.00098816	0.00412805
12.818	12.6937	-0.000478401	0.00321078
12.8185	12.6932	-0.000602372	0.00209733
12.819	12.6927	0.000762057	0.00292635
12.8194	12.6923	-1.35864e-05	0.00378806
12.8199	12.6918	-0.00117835	0.00406798
12.8204	12.6913	-0.000559426	0.00328846
12.8209	12.6909	-0.000401978	0.00213765
12.8213	12.6904	0.000571597	0.00289693
12.8218	12.6899	-0.000127891	0.00389221
12.8223	12.6894	-0.00114695	0.00401628
12.8227	12.689	-0.000372034	0.0032002
12.8232	12.6885	-0.000330621	0.00222344
12.8237	12.6881	0.000639352	0.00282548
12.8242	12.6876	-2.94595e-05	0.00397317
12.8246	12.6871	-0.0013292	0.00397145
12.8251	12.6866	-0.000471	0.00322077
12.8256	12.6861	-0.000356161	0.00223311
12.8261	12.6857	0.000560593	0.00287621
12.8265	12.6852	3.018e-06	0.00395154
12.827	12.6847	-0.00138469	0.00399464
12.8275	12.6842	-0.000417317	0.00308032
12.8279	12.6837	-0.000320615	0.00219526
12.8284	12.6833	0.00052305	0.00299625
12.8289	12.6828	8.2241e-05	0.00403652
12.8294	12.6823	-0.00118782	0.00395433
12.8298	12.6819	-0.000329889	0.00311409
12.8303	12.6814	-0.000152164	0.00228416
12.8308	12.6809	0.000499508	0.00289833
12.8312	12.6804	-0.000120757	0.00404275
12.8317	12.68	-0.00145604	0.00392286
12.8322	12.6795	-0.000368966	0.00306303
12.8327	12.679	-0.000209182	0.00222188
12.8331	12.6786	0.000368867	0.00303378
12.8336	12.6781	4.20945e-05	0.00404618
12.8341	12.6776	-0.00147391	0.00388722
12.8346	12.6772	-0.000367432	0.00310818
12.835	12.6767	-5.24666e-05	0.00219279
12.8355	12.6762	0.000333054	0.00294208
12.836	12.6757	9.78466e-05	0.0042635
12.8364	12.6752	-0.00144657	0.00383289
12.8369	12.6748	-0.000455127	0.00309433
12.8374	12.6743	-1.23201e-05	0.00215059
12.8379	12.6738	0.000348927	0.00288464
12.8383	12.6733	9.37802e-05	0.00420311
12.8388	12.6729	-0.00144811	0.00376283
12.8393	12.6724	-0.000443391	0.00302567
12.8397	12.6719	-5.49992e-05	0.00212224
12.8402	12.6715	0.000270436	0.00295437
12.8407	12.671	0.000121121	0.0040879
12.8412	12.6705	-0.00147671	0.00375676
12.8416	12.67	-0.000349026	0.00292307
12.8421	12.6696	9.5314e-05	0.00218141
12.8426	12.6691	0.000247428	0.00300527
12.8431	12.6687	6.23015e-05	0.00430881
12.8435	12.6682	-0.00149792	0.00373776
12.844	12.6677	-0.000486534	0.00298675
12.8445	12.6673	0.000144931	0.00228121
12.8449	12.6668	0.000180405	0.00293504
12.8454	12.6663	0.000107584	0.00422302
12.8459	12.6658	-0.00147951	0.00376143
12.8464	12.6653	-0.000421383	0.00292979
12.8468	12.6649	0.000181475	0.0023153
12.8473	12.6644	0.0001638	0.00307098
12.8478	12.6639	0.000102448	0.00433872
12.8482	12.6634	-0.00156134	0.00371177
12.8487	12.663	-0.000370232	0.00293692
12.8492	12.6625	0.000225955	0.00226236
12.8497	12.6621	0.000103447	0.00299346
12.8501	12.6616	0.000182206	0.00426538
12.8506	12.6611	-0.0014233	0.00360762
12.8511	12.6606	-0.000379703	0.00278065
12.8516	12.6602	0.000315915	0.00231154
12.852	12.6597	1.40222e-05	0.00304591
12.8525	12.6592	0.000150799	0.00431644
12.853	12.6588	-0.00147545	0.0036459
12.8534	12.6583	-0.000418583	0.00270371
12.8539	12.6578	0.000256899	0.00232931
12.8544	12.6574	-3.91973e-05	0.00310835
12.8549	12.6569	8.45773e-05	0.00420654
12.8553	12.6564	-0.00144197	0.00369121
12.8558	12.6559	-0.000475066	0.00270559
12.8563	12.6554	0.000333589	0.00230301
12.8567	12.655	0.000151334	0.00317185
12.8572	12.6545	-1.04843e-06	0.00429029
12.8577	12.654	-0.00142456	0.00374554
12.8582	12.6535	-0.000362099	0.00271166
12.8586	12.6531	0.000333322	0.00239593
12.8591	12.6526	-1.49239e-05	0.00318603
12.8596	12.6521	5.49e-05	0.00429341
12.8601	12.6517	-0.00136041	0.00368343
12.8605	12.6512	-0.000471999	0.00258292
12.861	12.6507	0.000588201	0.00241724
12.8615	12.6502	-5.58017e-05	0.00331214
12.8619	12.6498	-6.19369e-05	0.00416451
12.8624	12.6493	-0.00125631	0.00361852
12.8629	12.6488	-0.000410111	0.00265234
12.8634	12.6484	0.000567727	0.00240184
12.8638	12.6479	-8.62104e-05	0.00327305
12.8643	12.6474	-3.63972e-05	0.00429963
12.8648	12.6469	-0.00119576	0.0036218
12.8652	12.6464	-0.0005827	0.00250492
12.8657	12.646	0.000578	0.00246337
12.8662	12.6455	-0.000102815	0.00340957
12.8667	12.645	-0.000370232	0.00434446
12.8671	12.6445	-0.00118836	0.00364917
12.8676	12.6441	-0.000501408	0.00264659
12.8681	12.6436	0.00069917	0.00258711
12.8686	12.6431	-1.79203e-05	0.00341006
12.869	12.6427	-0.000249329	0.00440362
12.8695	12.6422	-0.00108759	0.00363737
12.87	12.6417	-0.000482735	0.00249697
12.8704	12.6413	0.000740048	0.00262931
12.8709	12.6408	-2.35917e-05	0.00333705
12.8714	12.6403	-0.000340091	0.00422179
12.8719	12.6398	-0.00106945	0.00359812
12.8723	12.6394	-0.000500606	0.00245928
12.8728	12.6389	0.000797067	0.00257932
12.8733	12.6385	-4.19974e-05	0.00329141
12.8737	12.638	-0.000385303	0.00427596
12.8742	12.6375	-0.000987625	0.0035905
12.8747	12.637	-0.000571429	0.00239733
12.8752	12.6366	0.0006897	0.00269191
12.8756	12.6361	-5.60692e-05	0.00324191
12.8761	12.6356	-0.000526413	0.00422426
12.8766	12.6351	-0.0010071	0.00360558
12.8771	12.6347	-0.000713074	0.00231218
12.8775	12.6342	0.000886562	0.00256859
12.878	12.6337	-0.000150898	0.00341505
12.8785	12.6332	-0.000592902	0.00436953
12.8789	12.6328	-0.000975159	0.00349553
12.8794	12.6323	-0.00067653	0.00225114
12.8799	12.6319	0.00092464	0.0026475
12.8804	12.6314	-0.000141427	0.00339433
12.8808	12.6309	-0.000692867	0.0042263
12.8813	12.6304	-0.000788765	0.00353085
12.8818	12.63	-0.000537685	0.00234456
12.8822	12.6295	0.000887829	0.00264504
12.8827	12.629	-0.000221988	0.00348914
12.8832	12.6286	-0.000670127	0.00420311
12.8837	12.6281	-0.000734547	0.0035388
12.8841	12.6276	-0.000667862	0.00220771
12.8846	12.6271	0.000972188	0.00267773
12.8851	12.6267	-6.4737e-05	0.00351593
12.8856	12.6262	-0.000787963	0.00411002
12.886	12.6257	-0.000827111	0.00347545
12.8865	12.6252	-0.000811041	0.00226811
12.887	12.6247	0.00101513	0.00270216
12.8874	12.6243	-0.000220454	0.00352028
12.8879	12.6238	-0.000685733	0.00422646
12.8884	12.6233	-0.000650455	0.00337844
12.8889	12.6228	-0.000699002	0.00231809
12.8893	12.6224	0.00100413	0.00278607
12.8898	12.6219	-0.000185373	0.00359812
12.8903	12.6214	-0.000782363	0.00420123
12.8907	12.621	-0.000616712	0.00341162
12.8912	12.6205	-0.000826112	0.00209561
12.8917	12.62	0.00092851	0.00275558
12.8922	12.6195	-0.000240126	0.00359533
12.8926	12.6191	-0.00084038	0.00414223
12.8931	12.6186	-0.000624113	0.00323429
12.8936	12.6181	-0.000633316	0.00217969
12.8941	12.6177	0.000789933	0.00279401
12.8945	12.6172	-0.000230121	0.00356231
12.895	12.6167	-0.000981561	0.00411871
12.8955	12.6162	-0.000600107	0.00335385
12.8959	12.6158	-0.000670662	0.00215854
12.8964	12.6153	0.000781729	0.00279197
12.8969	12.6148	-0.000156302	0.00376455
12.8974	12.6143	-0.000992494	0.00408929
12.8978	12.6139	-0.000565293	0.00334746
12.8983	12.6134	-0.000586035	0.00228277
12.8988	12.6129	0.000737783	0.0028163
