# 1304     AichiSR QXAFS
# Start     : 8.9544
# End       : 9.0544
# Dir       : Backward
# Points    : 300
# ScanTime  : 1.01549
# Date      : 13.04.23 23:11
# Ring Cur. : 0.9[mA]
12.7557	12.6122	0.000125259	0.00297585
12.7562	12.6127	0.000178675	0.00427939
12.7566	12.6132	-0.00134787	0.00367597
12.7571	12.6136	-0.00030608	0.00277329
12.7576	12.6141	0.000524049	0.00226827
12.7581	12.6146	5.61663e-05	0.0031267
12.7585	12.6151	0.000111918	0.00417541
12.759	12.6155	-0.00128779	0.00365884
12.7595	12.616	-0.000358497	0.00267446
12.7599	12.6165	0.000570063	0.00226687
12.7604	12.617	9.65803e-05	0.00316595
12.7609	12.6174	2.75589e-05	0.00425432
12.7614	12.6179	-0.00107685	0.00359763
12.7618	12.6184	-0.000428517	0.00278451
12.7623	12.6188	0.000613277	0.00230317
12.7628	12.6193	6.61716e-05	0.00319054
12.7632	12.6198	-1.03225e-05	0.00432438
12.7637	12.6202	-0.00121597	0.00356264
12.7642	12.6207	-0.000432851	0.00265422
12.7647	12.6212	0.000677697	0.00250647
12.7651	12.6217	4.95672e-05	0.00318587
12.7656	12.6222	-4.60638e-05	0.00422335
12.7661	12.6226	-0.00119576	0.00365696
12.7666	12.6231	-0.0003705	0.00262775
12.767	12.6236	0.000610477	0.00240683
12.7675	12.624	5.18323e-05	0.00313465
12.768	12.6245	-0.000153965	0.00420778
12.7684	12.625	-0.00097202	0.0035628
12.7689	12.6255	-0.00037437	0.00256236
12.7694	12.6259	0.000732914	0.0024705
12.7699	12.6264	-4.75977e-05	0.00330247
12.7703	12.6269	-0.000124556	0.0042635
12.7708	12.6274	-0.00115661	0.0036604
12.7713	12.6279	-0.000493472	0.00263103
12.7717	12.6283	0.000743918	0.0025127
12.7722	12.6288	-0.000126089	0.00323257
12.7727	12.6293	-0.000151165	0.0043166
12.7732	12.6297	-0.00102244	0.00353601
12.7736	12.6302	-0.000517014	0.00241773
12.7741	12.6307	0.000767657	0.00260456
12.7746	12.6311	-2.81932e-05	0.00330591
12.7751	12.6316	-0.000248794	0.00430742
12.7755	12.6321	-0.000981026	0.00358099
12.776	12.6325	-0.000451792	0.0023925
12.7765	12.633	0.000702238	0.00258571
12.7769	12.6335	-6.18485e-06	0.00332132
12.7774	12.6339	-0.00030328	0.00433684
12.7779	12.6344	-0.000854452	0.00352092
12.7784	12.6349	-0.000523149	0.00235873
12.7788	12.6354	0.000826209	0.00252204
12.7793	12.6359	-0.000159833	0.00335369
12.7798	12.6363	-0.000336489	0.00432111
12.7802	12.6368	-0.000981026	0.00347078
12.7807	12.6373	-0.000441322	0.00239781
12.7812	12.6378	0.000803202	0.00248935
12.7817	12.6382	-8.4409e-05	0.00339154
12.7821	12.6387	-0.000439521	0.00418909
12.7826	12.6391	-0.000954417	0.00371923
12.7831	12.6396	-0.000466131	0.00235717
12.7836	12.6401	0.0010154	0.00252687
12.784	12.6405	-2.09879e-05	0.00340834
12.7845	12.641	-0.000468931	0.00412821
12.785	12.6415	-0.000982025	0.0034398
12.7854	12.642	-0.000583235	0.00241166
12.7859	12.6424	0.00100593	0.00263537
12.7864	12.6429	-7.98076e-05	0.00330886
12.7869	12.6433	-0.00034109	0.00414969
12.7873	12.6438	-0.000856253	0.00369792
12.7878	12.6443	-0.00052108	0.00228695
12.7883	12.6448	0.000888899	0.00256064
12.7887	12.6452	-2.17904e-05	0.003399
12.7892	12.6457	-0.000525949	0.00429915
12.7897	12.6462	-0.000841914	0.00352946
12.7902	12.6467	-0.000582433	0.00230875
12.7906	12.6472	0.00105475	0.00264595
12.7911	12.6476	-2.79257e-05	0.00340195
12.7916	12.6481	-0.000569163	0.00423827
12.7921	12.6486	-0.000778029	0.00349241
12.7925	12.6491	-0.000534617	0.00224261
12.793	12.6495	0.000988793	0.0026634
12.7935	12.65	-0.000155499	0.00350954
12.7939	12.6505	-0.000570697	0.00416402
12.7944	12.651	-0.000811505	0.00342514
12.7949	12.6514	-0.000571696	0.00226966
12.7954	12.6519	0.00096632	0.00268675
12.7958	12.6524	-3.45959e-05	0.00351265
12.7963	12.6528	-0.000631515	0.00407888
12.7968	12.6533	-0.000748351	0.00345939
12.7972	12.6538	-0.000616444	0.00231047
12.7977	12.6542	0.00105862	0.00264799
12.7982	12.6547	-7.08723e-05	0.00355329
12.7987	12.6552	-0.000727146	0.00423908
12.7991	12.6557	-0.000689799	0.00347373
12.7996	12.6562	-0.000655057	0.00223262
12.8001	12.6566	0.000987794	0.00263537
12.8006	12.6571	-0.000102815	0.00356526
12.801	12.6576	-0.000704139	0.00408961
12.8015	12.6581	-0.000702605	0.00343899
12.802	12.6585	-0.000622312	0.00231014
12.8024	12.659	0.000976058	0.00285506
12.8029	12.6595	-3.6861e-05	0.00356543
12.8034	12.6599	-0.00081097	0.00416993
12.8039	12.6604	-0.000542554	0.00350782
12.8043	12.6609	-0.000595773	0.002024
12.8048	12.6614	0.000944116	0.00272535
12.8053	12.6618	-6.98735e-06	0.00353413
12.8057	12.6623	-0.000899735	0.00404275
12.8062	12.6627	-0.00056483	0.00339884
12.8067	12.6632	-0.000604709	0.00211897
12.8072	12.6637	0.000932042	0.00253278
12.8076	12.6642	-7.60087e-05	0.00361353
12.8081	12.6646	-0.000800037	0.00403808
12.8086	12.6651	-0.00066986	0.00335975
12.8091	12.6656	-0.000568093	0.00224057
12.8095	12.6661	0.00103941	0.00271305
12.81	12.6665	-8.31427e-05	0.00361508
12.8105	12.667	-0.000906601	0.00407142
12.8109	12.6675	-0.000695667	0.00328706
12.8114	12.668	-0.0005855	0.00212879
12.8119	12.6684	0.000907037	0.00262824
12.8124	12.6689	8.88573e-06	0.00366818
12.8128	12.6693	-0.00104184	0.00410674
12.8133	12.6698	-0.000629981	0.00336008
12.8138	12.6703	-0.00063205	0.00211446
12.8142	12.6707	0.000934842	0.00263226
12.8147	12.6712	-0.000129424	0.00364467
12.8152	12.6717	-0.000937277	0.00406954
12.8157	12.6722	-0.000514945	0.00323069
12.8161	12.6726	-0.000668861	0.00225409
12.8166	12.6731	0.000732914	0.00269453
12.8171	12.6736	-8.80117e-05	0.00376299
12.8176	12.674	-0.0010191	0.00417025
12.818	12.6745	-0.000490939	0.00332959
12.8185	12.675	-0.000536686	0.00215993
12.819	12.6755	0.000805003	0.00271944
12.8194	12.676	7.87096e-05	0.00386059
12.8199	12.6764	-0.00110193	0.0040924
12.8204	12.6769	-0.000345691	0.00330838
12.8209	12.6774	-0.000472266	0.00209578
12.8213	12.6779	0.000869156	0.00275649
12.8218	12.6783	-0.000153698	0.00381249
12.8223	12.6788	-0.00101757	0.00405193
12.8227	12.6793	-0.00044052	0.00331788
12.8232	12.6797	-0.000381504	0.00212224
12.8237	12.6802	0.00065469	0.00284244
12.8242	12.6807	6.43703e-05	0.00387353
12.8246	12.6812	-0.00116662	0.0039649
12.8251	12.6816	-0.000391973	0.00323413
12.8256	12.6821	-0.000459193	0.00216567
12.8261	12.6826	0.000758454	0.00292291
12.8265	12.683	3.95619e-05	0.00390811
12.827	12.6835	-0.00114208	0.00408822
12.8275	12.684	-0.000373567	0.00316267
12.8279	12.6845	-0.000410646	0.00211602
12.8284	12.6849	0.000682299	0.00287342
12.8289	12.6854	-4.91315e-05	0.0038855
12.8294	12.6859	-0.0012149	0.00393876
12.8298	12.6864	-0.000376368	0.00313137
12.8303	12.6869	-0.000269001	0.00216584
12.8308	12.6873	0.000649019	0.00285522
12.8312	12.6878	2.17883e-07	0.00403373
12.8317	12.6883	-0.00132027	0.00375242
12.8322	12.6888	-0.000471196	0.00320675
12.8327	12.6892	-0.000290742	0.00212584
12.8331	12.6897	0.0006897	0.00275992
12.8336	12.6901	6.15702e-05	0.003919
12.8341	12.6906	-0.00137655	0.00393441
12.8346	12.6911	-0.000345424	0.00316005
12.835	12.6916	-0.000226589	0.00208004
12.8355	12.692	0.000595603	0.00285629
12.836	12.6925	4.59646e-05	0.004018
12.8364	12.6929	-0.00124791	0.00379053
12.8369	12.6934	-0.000456661	0.0030364
12.8374	12.6939	-0.000159298	0.00209954
12.8379	12.6944	0.00046423	0.00288915
12.8383	12.6948	1.30233e-05	0.00397145
12.8388	12.6953	-0.00137882	0.00395851
12.8393	12.6958	-0.000383573	0.00303705
12.8397	12.6963	-0.000108219	0.002284
12.8402	12.6967	0.000543721	0.00295872
12.8407	12.6972	7.27707e-05	0.00405552
12.8412	12.6977	-0.00149619	0.00372391
12.8416	12.6982	-0.000275939	0.00312719
12.8421	12.6986	-1.38539e-05	0.00212503
12.8426	12.6991	0.000388539	0.00289661
12.8431	12.6995	3.5763e-05	0.00414411
12.8435	12.7	-0.00143277	0.00390418
12.844	12.7005	-0.000346226	0.00299969
12.8445	12.701	9.27813e-05	0.00230547
12.8449	12.7014	0.00035533	0.00280786
12.8454	12.7019	6.89717e-05	0.00414099
12.8459	12.7024	-0.00134427	0.00387976
12.8464	12.7028	-0.000315015	0.00291218
12.8468	12.7033	4.69634e-05	0.00225302
12.8473	12.7038	0.000475234	0.00288587
12.8478	12.7043	6.03039e-05	0.00411281
12.8482	12.7047	-0.00149639	0.00382698
12.8487	12.7052	-0.000248794	0.00297182
12.8492	12.7057	-3.38473e-06	0.00224336
12.8497	12.7062	0.00038087	0.00293274
12.8501	12.7067	0.000216217	0.00408339
12.8506	12.7072	-0.00145091	0.00374431
12.8511	12.7076	-0.000435187	0.00302427
12.8516	12.7081	-2.15229e-05	0.00219386
12.852	12.7086	0.000329255	0.00282343
12.8525	12.709	0.000188876	0.00421991
12.853	12.7095	-0.0014417	0.00368096
12.8534	12.71	-0.000361029	0.00296028
12.8539	12.7104	0.000218019	0.00216772
12.8544	12.7109	0.000210885	0.00298879
12.8549	12.7114	0.000299845	0.00423392
12.8553	12.7119	-0.00141256	0.00369089
12.8558	12.7123	-0.000283804	0.00293832
12.8563	12.7128	0.000176606	0.00214125
12.8567	12.7133	0.000214148	0.00308204
12.8572	12.7137	0.000222353	0.00428653
12.8577	12.7142	-0.00149439	0.00379069
12.8582	12.7147	-0.000248794	0.00289816
12.8586	12.7152	0.00025763	0.00226564
12.8591	12.7156	0.000198882	0.00303206
12.8596	12.7161	0.000153331	0.00413444
12.8601	12.7166	-0.00140182	0.00375209
12.8605	12.7171	-0.000284607	0.00288759
12.861	12.7176	0.000324654	0.00232743
12.8615	12.718	0.000210082	0.00307549
12.8619	12.7185	0.000240294	0.00422179
12.8624	12.719	-0.001308	0.0037398
12.8629	12.7194	-0.000359496	0.0028018
12.8634	12.7199	0.000325653	0.00224041
12.8638	12.7203	0.000139527	0.00307426
12.8643	12.7208	9.4779e-05	0.00427939
12.8648	12.7213	-0.00143223	0.00364327
12.8652	12.7218	-0.000388638	0.00287825
12.8657	12.7222	0.000385204	0.00234472
12.8662	12.7227	0.000234623	0.00312359
12.8667	12.7231	0.000195546	0.00424826
12.8671	12.7236	-0.00129266	0.0037675
12.8676	12.7241	-0.00037997	0.00265701
12.8681	12.7246	0.000509977	0.00231669
12.8686	12.725	0.00014206	0.00310367
12.869	12.7255	2.14237e-05	0.00425293
12.8695	12.726	-0.00133687	0.00370694
12.87	12.7265	-0.000315818	0.00270855
12.8704	12.7269	0.000442222	0.0022658
12.8709	12.7274	0.000134925	0.00311613
12.8714	12.7279	9.78466e-05	0.0042467
12.8719	12.7284	-0.00131206	0.00371923
12.8723	12.7288	-0.000415979	0.00262726
12.8728	12.7293	0.00046316	0.00240683
12.8733	12.7298	7.87096e-05	0.00310072
12.8737	12.7302	1.34872e-05	0.00433995
12.8742	12.7307	-0.00128345	0.00351872
12.8747	12.7312	-0.000394506	0.00263677
12.8752	12.7317	0.000472898	0.00227261
12.8756	12.7321	1.52885e-05	0.00312982
12.8761	12.7326	0.000140062	0.00432159
12.8766	12.7331	-0.00126738	0.00363844
12.8771	12.7335	-0.000401443	0.00250771
12.8775	12.734	0.000603272	0.00239454
12.878	12.7345	-1.48527e-05	0.0032002
12.8785	12.735	-6.37382e-05	0.00422614
12.8789	12.7355	-0.00126965	0.00363221
12.8794	12.7359	-0.000442321	0.00255474
12.8799	12.7364	0.000633948	0.00244215
12.8804	12.7369	-8.06101e-05	0.00317669
12.8808	12.7374	-4.60638e-05	0.00421884
12.8813	12.7379	-0.0012111	0.00355592
12.8818	12.7383	-0.000373835	0.00261062
12.8822	12.7388	0.000785331	0.00238643
12.8827	12.7393	8.94462e-05	0.00316579
12.8832	12.7397	-2.63918e-05	0.0042998
12.8837	12.7402	-0.00123204	0.00364966
12.8841	12.7407	-0.000411645	0.00241134
12.8846	12.7412	0.000668227	0.0024238
12.8851	12.7416	-6.26682e-05	0.00319381
12.8856	12.7421	4.28431e-06	0.00427317
12.886	12.7426	-0.00110246	0.00359296
12.8865	12.743	-0.000521348	0.00259833
12.887	12.7435	0.000834948	0.00246181
12.8874	12.744	1.47535e-05	0.00323708
12.8879	12.7444	-0.000303012	0.00431005
12.8884	12.7449	-0.00100223	0.00362164
12.8889	12.7454	-0.000500142	0.00243051
12.8893	12.7459	0.00073138	0.00243797
12.8898	12.7463	0.000124189	0.00335713
12.8903	12.7468	-0.000344425	0.00421041
12.8907	12.7473	-0.00109119	0.00356387
12.8912	12.7478	-0.000454395	0.00241494
12.8917	12.7482	0.00073418	0.00260284
12.8922	12.7487	-2.4323e-05	0.00343341
12.8926	12.7492	-0.000284607	0.00429808
12.8931	12.7496	-0.000937812	0.0035782
12.8936	12.7501	-0.000359228	0.00244404
12.8941	12.7506	0.000770457	0.00256564
12.8945	12.751	7.76396e-05	0.00328379
12.895	12.7515	-0.000305545	0.00422909
12.8955	12.752	-0.00100097	0.00350659
12.8959	12.7524	-0.000538487	0.00240093
12.8964	12.7529	0.000828545	0.00248951
12.8969	12.7534	4.82297e-05	0.0033713
12.8974	12.7538	-0.000395772	0.00431037
12.8978	12.7543	-0.000894134	0.00347513
12.8983	12.7548	-0.000518815	0.00243207
12.8988	12.7553	0.000841012	0.00254835
