# 1304     AichiSR QXAFS
# Start     : 8.9544
# End       : 9.0544
# Dir       : Forward
# Points    : 300
# ScanTime  : 1.01549
# Date      : 13.04.23 22:39
# Ring Cur. : 1[mA]
12.7557	12.7559	-0.00139749	0.00383707
12.7562	12.7554	-0.0003649	0.00304451
12.7566	12.7549	-9.87483e-05	0.00213051
12.7571	12.7544	0.000375537	0.00293585
12.7576	12.754	3.80281e-05	0.00376315
12.7581	12.7535	-0.00145984	0.00377373
12.7585	12.753	-0.000378704	0.00296076
12.759	12.7526	3.44255e-05	0.00206808
12.7595	12.7521	0.000413347	0.00278204
12.7599	12.7517	7.53745e-05	0.00397596
12.7604	12.7512	-0.00141896	0.00371194
12.7609	12.7507	-0.000541822	0.00284555
12.7614	12.7502	-2.27892e-05	0.00212708
12.7618	12.7498	0.000393408	0.00290267
12.7623	12.7493	0.000167938	0.00402734
12.7628	12.7488	-0.00136601	0.00365556
12.7632	12.7484	-0.000364365	0.00283294
12.7637	12.7479	9.07125e-05	0.0019963
12.7642	12.7474	0.000343791	0.00287669
12.7647	12.747	9.81141e-05	0.0041178
12.7651	12.7465	-0.00149539	0.00372718
12.7656	12.746	-0.000312483	0.00278607
12.7661	12.7455	7.35732e-05	0.00206496
12.7666	12.7451	0.000416147	0.00283449
12.767	12.7446	0.000226686	0.00403652
12.7675	12.7441	-0.00150666	0.00372251
12.768	12.7436	-0.000359763	0.00285801
12.7684	12.7432	0.000136459	0.00212815
12.7689	12.7427	0.00042535	0.00286096
12.7694	12.7422	0.00019321	0.00404586
12.7699	12.7418	-0.00147545	0.00372874
12.7703	12.7413	-0.000392776	0.0029293
12.7708	12.7408	0.000208013	0.00219058
12.7713	12.7403	0.000241561	0.00292775
12.7717	12.7399	0.000292908	0.0041419
12.7722	12.7394	-0.00139669	0.00367768
12.7727	12.7389	-0.000282805	0.00289849
12.7732	12.7385	0.000214951	0.00222607
12.7736	12.738	0.000342257	0.00294283
12.7741	12.7375	0.00021035	0.00420483
12.7746	12.737	-0.00149926	0.00367785
12.7751	12.7366	-0.000250328	0.0028091
12.7755	12.7361	0.000220551	0.00215961
12.776	12.7356	0.000249497	0.00283466
12.7765	12.7351	8.61111e-05	0.00426039
12.7769	12.7346	-0.00144297	0.00368965
12.7774	12.7342	-0.000366897	0.00281442
12.7779	12.7337	0.000259699	0.00222795
12.7784	12.7332	0.000254295	0.00297011
12.7788	12.7327	0.000148462	0.00417181
12.7793	12.7323	-0.00135274	0.00360746
12.7798	12.7318	-0.000291277	0.00279761
12.7802	12.7313	0.000368867	0.00230687
12.7807	12.7309	0.000176873	0.00294348
12.7812	12.7304	0.000237958	0.004136
12.7817	12.7299	-0.00130566	0.00362754
12.7821	12.7294	-0.000381236	0.00266495
12.7826	12.729	0.000459094	0.00222688
12.7831	12.7285	0.000123458	0.00302239
12.7836	12.728	0.000172004	0.0041972
12.784	12.7276	-0.00142303	0.00369186
12.7845	12.7271	-0.000375101	0.00271633
12.785	12.7266	0.000488771	0.00219542
12.7854	12.7261	0.000123386	0.00288104
12.7859	12.7257	9.5314e-05	0.00421277
12.7864	12.7252	-0.00141456	0.00359763
12.7869	12.7247	-0.000353628	0.00268256
12.7873	12.7242	0.00039594	0.00228604
12.7878	12.7238	0.000154865	0.00303657
12.7883	12.7233	3.39617e-05	0.00426039
12.7887	12.7228	-0.00123537	0.0036241
12.7892	12.7224	-0.000366897	0.00268068
12.7897	12.7219	0.000358398	0.00228695
12.7902	12.7214	0.000104517	0.00303877
12.7906	12.721	1.65548e-05	0.00414926
12.7911	12.7205	-0.00136014	0.00359394
12.7916	12.72	-0.000371231	0.00255817
12.7921	12.7196	0.000549125	0.00225941
12.7925	12.7191	5.44362e-05	0.00319381
12.793	12.7186	9.49192e-07	0.00421819
12.7935	12.7182	-0.00125531	0.00363253
12.7939	12.7177	-0.00028894	0.00265282
12.7944	12.7172	0.000580265	0.00230891
12.7949	12.7167	4.72309e-05	0.00312982
12.7954	12.7163	9.27102e-05	0.00427145
12.7958	12.7158	-0.00130646	0.00355313
12.7963	12.7153	-0.000414249	0.00258555
12.7968	12.7148	0.000596138	0.00239921
12.7972	12.7144	-3.40609e-05	0.00312048
12.7977	12.7139	-4.38354e-06	0.0042744
12.7982	12.7134	-0.00126225	0.00364843
12.7987	12.7129	-0.000417049	0.00251877
12.7991	12.7125	0.000645487	0.00228072
12.7996	12.712	4.41633e-05	0.00311334
12.8001	12.7115	-0.000161634	0.00412199
12.8006	12.7111	-0.00109706	0.00354035
12.801	12.7106	-0.000352629	0.00245837
12.8015	12.7101	0.000630345	0.00237086
12.802	12.7096	-3.22596e-05	0.0031893
12.8024	12.7092	-0.000181574	0.00418877
12.8029	12.7087	-0.00108072	0.00357493
12.8034	12.7083	-0.000425182	0.00257621
12.8039	12.7078	0.000599205	0.00236201
12.8043	12.7073	-2.94595e-05	0.00314383
12.8048	12.7068	-0.000142961	0.00420139
12.8053	12.7063	-0.00113847	0.0036073
12.8057	12.7059	-0.000451524	0.00247566
12.8062	12.7054	0.000760523	0.00238552
12.8067	12.7049	-2.5393e-05	0.0031798
12.8072	12.7044	-0.000317084	0.00430758
12.8076	12.7039	-0.0011178	0.00342686
12.8081	12.7035	-0.000660924	0.00235513
12.8086	12.703	0.000743383	0.00253278
12.8091	12.7025	-3.50597e-05	0.00319258
12.8095	12.7021	-0.000295611	0.00428095
12.81	12.7016	-0.00107252	0.00346767
12.8105	12.7011	-0.000384839	0.00241011
12.8109	12.7006	0.000789933	0.0023743
12.8114	12.7002	-4.17299e-05	0.00314662
12.8119	12.6997	-0.000387104	0.00412821
12.8124	12.6992	-0.00100476	0.00333844
12.8128	12.6988	-0.000574764	0.00239421
12.8133	12.6983	0.000905236	0.00241011
12.8138	12.6978	-0.000171105	0.00319988
12.8142	12.6974	-0.000374834	0.00413026
12.8147	12.6969	-0.000928074	0.00348619
12.8152	12.6964	-0.000468931	0.00224368
12.8157	12.6959	0.000718379	0.00247222
12.8161	12.6955	-5.40004e-05	0.00329329
12.8166	12.695	-0.000360762	0.0040924
12.8171	12.6945	-0.000994563	0.00347996
12.8176	12.694	-0.000450525	0.0022985
12.818	12.6936	0.000893696	0.00236496
12.8185	12.6931	-0.000175974	0.00331681
12.819	12.6926	-0.000410646	0.00429464
12.8194	12.6922	-0.000967953	0.00340727
12.8199	12.6917	-0.000509345	0.00228679
12.8204	12.6912	0.000913172	0.00256424
12.8209	12.6908	-0.000193577	0.00329469
12.8213	12.6903	-0.00051441	0.00424547
12.8218	12.6898	-0.000942414	0.0034398
12.8223	12.6894	-0.000686	0.00215526
12.8227	12.6889	0.000860755	0.00250771
12.8232	12.6884	-9.92121e-05	0.00335745
12.8237	12.688	-0.000456393	0.00412059
12.8242	12.6875	-0.000956486	0.00351593
12.8246	12.687	-0.000559693	0.00224024
12.8251	12.6865	0.000928243	0.0025812
12.8256	12.6861	-9.20781e-05	0.00340662
12.8261	12.6856	-0.000580899	0.00412091
12.8265	12.6851	-0.000828377	0.00342702
12.827	12.6846	-0.000622579	0.00223155
12.8275	12.6841	0.00109696	0.00255334
12.8279	12.6837	-0.000151897	0.00344726
12.8284	12.6832	-0.000658856	0.00424187
12.8289	12.6827	-0.000786964	0.0034507
12.8294	12.6823	-0.000567095	0.00214264
12.8298	12.6818	0.00093131	0.00258776
12.8303	12.6813	-3.91973e-05	0.00344866
12.8308	12.6808	-0.000611308	0.00410379
12.8312	12.6804	-0.000772161	0.00343916
12.8317	12.6799	-0.000583967	0.00210184
12.8322	12.6794	0.00105221	0.00266823
12.8327	12.679	-6.62708e-05	0.00343234
12.8331	12.6785	-0.000503406	0.00424514
12.8336	12.678	-0.000783362	0.00339965
12.8341	12.6775	-0.000655057	0.00214699
12.8346	12.6771	0.000891699	0.00264692
12.835	12.6766	-3.09933e-05	0.0034398
12.8355	12.6761	-0.000665526	0.00417508
12.836	12.6756	-0.000730213	0.0033618
12.8364	12.6751	-0.000564027	0.00215961
12.8369	12.6747	0.00103181	0.00267306
12.8374	12.6742	-0.000127891	0.00361074
12.8379	12.6737	-0.000742484	0.00411576
12.8383	12.6732	-0.000648921	0.00346799
12.8388	12.6728	-0.000727681	0.00208004
12.8393	12.6723	0.000898833	0.00269625
12.8397	12.6718	-0.000118955	0.00357584
12.8402	12.6714	-0.000768291	0.00413165
12.8407	12.6709	-0.000649456	0.00323118
12.8412	12.6704	-0.000689264	0.00207119
12.8416	12.67	0.000859489	0.00268798
12.8421	12.6695	-0.000137629	0.00354781
12.8426	12.669	-0.000866455	0.00410969
12.8431	12.6686	-0.000693669	0.00338483
12.8435	12.6681	-0.0005827	0.00212085
12.844	12.6676	0.000929242	0.00265454
12.8445	12.6672	-3.71285e-05	0.00355813
12.8449	12.6667	-0.000820173	0.00402611
12.8454	12.6662	-0.000625647	0.003399
12.8459	12.6657	-0.000589567	0.00212536
12.8464	12.6653	0.000899635	0.00266216
12.8468	12.6648	-8.28752e-05	0.00353584
12.8473	12.6643	-0.0008992	0.00413895
12.8478	12.6638	-0.000656323	0.00331788
12.8482	12.6634	-0.000655057	0.00198835
12.8487	12.6629	0.000831613	0.00273485
12.8492	12.6624	-0.000119223	0.00359189
12.8497	12.662	-0.00111754	0.00404881
12.8501	12.6615	-0.000508275	0.00317406
12.8506	12.661	-0.00053822	0.00211757
12.8511	12.6606	0.000863823	0.00276959
12.8516	12.6601	-3.78598e-05	0.00368268
12.852	12.6596	-0.00099863	0.00399572
12.8525	12.6591	-0.000443391	0.00326355
12.853	12.6587	-0.00045386	0.00207586
12.8534	12.6582	0.00085075	0.0026525
12.8539	12.6577	-2.71943e-05	0.00364622
12.8544	12.6573	-0.00114334	0.00405552
12.8549	12.6568	-0.000593437	0.0032438
12.8553	12.6563	-0.000462261	0.00216256
12.8558	12.6558	0.000826209	0.00267757
12.8563	12.6554	-1.30514e-05	0.00374136
12.8567	12.6549	-0.00111267	0.00398793
12.8572	12.6544	-0.000479668	0.00325109
12.8577	12.6539	-0.00037997	0.00210823
12.8582	12.6535	0.000811406	0.00261374
12.8586	12.653	-6.72697e-05	0.00375177
12.8591	12.6525	-0.00106485	0.0039903
12.8596	12.6521	-0.000470465	0.00319832
12.8601	12.6516	-0.000445656	0.00205734
12.8605	12.6511	0.000775326	0.00270683
12.861	12.6506	1.1222e-05	0.00366023
12.8615	12.6501	-0.00106358	0.00390869
12.8619	12.6497	-0.000489138	0.00319414
12.8624	12.6492	-0.000266201	0.00200875
12.8629	12.6487	0.000690699	0.0026198
12.8634	12.6483	2.01574e-05	0.00380379
12.8638	12.6478	-0.00119963	0.00392163
12.8643	12.6473	-0.000383305	0.00313621
12.8648	12.6468	-0.00030221	0.00205685
12.8652	12.6464	0.00075132	0.00273297
12.8657	12.6459	-4.91854e-06	0.00381544
12.8662	12.6454	-0.00116589	0.00385469
12.8667	12.6449	-0.000548689	0.00304763
12.8671	12.6444	-0.000370767	0.00211618
12.8676	12.644	0.000694836	0.00275353
12.8681	12.6435	-6.78047e-05	0.00386263
12.8686	12.643	-0.00115868	0.00398079
12.869	12.6426	-0.000380701	0.0030945
12.8695	12.6421	-0.000201781	0.00211355
12.87	12.6417	0.000672828	0.00282531
12.8704	12.6412	4.72309e-05	0.00378012
12.8709	12.6407	-0.00121697	0.00393548
12.8714	12.6402	-0.000289208	0.00302084
12.8719	12.6398	-0.000113819	0.00210775
12.8723	12.6393	0.000655154	0.00280057
12.8728	12.6388	4.46983e-05	0.00398219
12.8733	12.6384	-0.00129572	0.0037879
12.8737	12.6379	-0.000387639	0.0030596
12.8742	12.6374	-0.000210716	0.00214355
12.8747	12.6369	0.000603076	0.00275869
12.8752	12.6365	0.000112186	0.00391836
12.8756	12.636	-0.00134787	0.00389312
12.8761	12.6355	-0.000205116	0.00303566
12.8766	12.635	-0.000209914	0.00214887
12.8771	12.6346	0.000549856	0.00280507
12.8775	12.6341	5.51675e-05	0.00397875
12.878	12.6336	-0.0013164	0.0040012
12.8785	12.6332	-0.000340822	0.00307893
12.8789	12.6327	-0.000108486	0.00209642
12.8794	12.6322	0.000393871	0.00285629
12.8799	12.6318	5.58988e-05	0.00400898
12.8804	12.6313	-0.00133154	0.0039095
12.8808	12.6308	-0.000389173	0.00299018
12.8813	12.6303	-0.000105151	0.00217673
12.8818	12.6299	0.000532449	0.00286128
12.8822	12.6294	0.00015153	0.00398842
12.8827	12.6289	-0.00137495	0.00386575
12.8832	12.6285	-0.000262866	0.00300527
12.8837	12.628	-4.96665e-05	0.00215617
12.8841	12.6275	0.00044529	0.00289194
12.8846	12.627	9.17113e-05	0.00407077
12.8851	12.6266	-0.0014389	0.0037085
12.8856	12.6261	-0.000400641	0.00292136
12.886	12.6256	-3.94648e-05	0.00217206
12.8865	12.6251	0.000378801	0.00291389
12.887	12.6246	0.000186344	0.00419081
12.8874	12.6242	-0.00147265	0.00373308
12.8879	12.6237	-0.000360031	0.00288292
12.8884	12.6232	7.20393e-05	0.00214125
12.8889	12.6228	0.000425618	0.00278344
12.8893	12.6223	4.08282e-05	0.00404463
12.8898	12.6218	-0.00146571	0.00353445
12.8903	12.6213	-0.000306347	0.00280974
12.8907	12.6209	6.74379e-05	0.00205873
12.8912	12.6204	0.000171273	0.00280196
12.8917	12.6199	0.000244628	0.00417492
12.8922	12.6194	-0.00158308	0.00361664
12.8926	12.619	-0.000271337	0.00290971
12.8931	12.6185	0.000230824	0.00221845
12.8936	12.618	0.000272968	0.00289956
12.8941	12.6176	0.00027864	0.00411764
12.8945	12.6171	-0.0014177	0.00367908
12.895	12.6166	-0.000285605	0.00287481
12.8955	12.6161	0.000317252	0.00221115
12.8959	12.6157	0.00028037	0.00287997
12.8964	12.6152	0.000159734	0.00423687
12.8969	12.6147	-0.00150973	0.00366834
12.8974	12.6142	-0.000360031	0.00282032
12.8978	12.6138	0.000127791	0.00224524
12.8983	12.6133	0.000221354	0.00294659
12.8988	12.6128	0.000267368	0.00412854
