# 1304     AichiSR QXAFS
# Start     : 8.9544
# End       : 9.0544
# Dir       : Forward
# Points    : 300
# ScanTime  : 1.01549
# Date      : 13.04.24 00:28
# Ring Cur. : 1[mA]
12.7557	12.7563	-0.000149899	0.00359501
12.7562	12.7558	-0.000636651	0.00421196
12.7566	12.7553	-0.000661459	0.0034616
12.7571	12.7548	-0.00067373	0.00219418
12.7576	12.7544	0.000991396	0.00275976
12.7581	12.7539	-0.000142497	0.00350283
12.7585	12.7534	-0.000660122	0.00414034
12.759	12.753	-0.000660924	0.00343218
12.7595	12.7525	-0.000593437	0.00221738
12.7599	12.752	0.0010172	0.00269888
12.7604	12.7516	-0.000214586	0.00361959
12.7609	12.7511	-0.00076649	0.00426538
12.7614	12.7506	-0.000724078	0.00337892
12.7618	12.7502	-0.000692332	0.0021646
12.7623	12.7497	0.000940246	0.00268159
12.7628	12.7492	-2.76582e-05	0.00365868
12.7632	12.7488	-0.000751152	0.00416697
12.7637	12.7483	-0.000677796	0.00338826
12.7642	12.7478	-0.000582968	0.00211462
12.7647	12.7474	0.000833878	0.00272068
12.7651	12.7469	-1.84553e-05	0.00367237
12.7656	12.7464	-0.000866187	0.00415796
12.7661	12.7459	-0.000560228	0.00336008
12.7666	12.7455	-0.000739416	0.00210356
12.767	12.745	0.000982461	0.00278016
12.7675	12.7445	-4.63313e-05	0.00362631
12.768	12.744	-0.000876995	0.00409429
12.7684	12.7436	-0.000476333	0.00338359
12.7689	12.7431	-0.00066706	0.00216895
12.7694	12.7426	0.00084515	0.00280287
12.7699	12.7422	9.42073e-06	0.00369309
12.7703	12.7417	-0.000964886	0.00415189
12.7708	12.7412	-0.000561958	0.00336459
12.7713	12.7407	-0.000559158	0.00220755
12.7717	12.7403	0.00096632	0.00281844
12.7722	12.7398	-0.000192043	0.00362319
12.7727	12.7393	-0.000957217	0.00408961
12.7732	12.7389	-0.000646318	0.00320815
12.7736	12.7384	-0.000571964	0.00207972
12.7741	12.7379	0.000863288	0.00277952
12.7746	12.7375	-0.000102547	0.00366367
12.7751	12.737	-0.00105511	0.00404758
12.7755	12.7365	-0.000419314	0.00335573
12.776	12.736	-0.000574032	0.00214404
12.7765	12.7355	0.000763858	0.00269625
12.7769	12.7351	-5.80668e-05	0.0037616
12.7774	12.7346	-0.000991763	0.00411125
12.7779	12.7341	-0.000472266	0.00328895
12.7784	12.7336	-0.000489869	0.00218157
12.7788	12.7331	0.000740851	0.00279139
12.7793	12.7327	9.93804e-05	0.00388689
12.7798	12.7322	-0.00102271	0.00398842
12.7802	12.7317	-0.000468663	0.003217
12.7807	12.7313	-0.00039991	0.00210356
12.7812	12.7308	0.00066136	0.00292775
12.7817	12.7303	-4.75977e-05	0.00380331
12.7821	12.7298	-0.00116788	0.00399899
12.7826	12.7294	-0.000457392	0.00323478
12.7831	12.7289	-0.000356696	0.00224073
12.7836	12.7284	0.00076639	0.00275337
12.784	12.728	6.64391e-05	0.0038469
12.7845	12.7275	-0.00106819	0.00398858
12.785	12.727	-0.000374299	0.00310835
12.7854	12.7266	-0.000277473	0.00217297
12.7859	12.7261	0.000811406	0.00280459
12.7864	12.7256	-0.000114086	0.00384174
12.7869	12.7251	-0.00115668	0.00396646
12.7873	12.7247	-0.000470197	0.00315538
12.7878	12.7242	-0.000338022	0.00208939
12.7883	12.7237	0.000662092	0.00287202
12.7887	12.7232	4.31645e-05	0.00390713
12.7892	12.7228	-0.00126118	0.0038796
12.7897	12.7223	-0.000330353	0.00321996
12.7902	12.7219	-0.000214783	0.00208176
12.7906	12.7214	0.000709372	0.0028921
12.7911	12.7209	9.96479e-05	0.00389361
12.7916	12.7204	-0.00132333	0.00392303
12.7921	12.72	-0.000342624	0.00312563
12.7925	12.7195	-0.00013556	0.002161
12.793	12.719	0.000529917	0.00282204
12.7935	12.7186	0.000144128	0.00387353
12.7939	12.7181	-0.00129366	0.00392351
12.7944	12.7176	-0.00033162	0.00307925
12.7949	12.7172	-0.000156766	0.00211962
12.7954	12.7167	0.000467298	0.00295158
12.7958	12.7162	6.18377e-05	0.00414566
12.7963	12.7157	-0.00141789	0.00388845
12.7968	12.7152	-0.000468663	0.00328379
12.7972	12.7148	-8.3874e-05	0.0022155
12.7977	12.7143	0.000508978	0.00287685
12.7982	12.7138	4.72309e-05	0.0040493
12.7987	12.7133	-0.00146444	0.00382854
12.7991	12.7129	-0.000369768	0.00303845
12.7996	12.7124	-4.14624e-05	0.00215247
12.8001	12.712	0.000505108	0.00295454
12.8006	12.7115	5.5435e-05	0.00414583
12.801	12.711	-0.00134688	0.00383509
12.8015	12.7105	-0.000483467	0.00304172
12.802	12.7101	-4.57963e-05	0.00232727
12.8024	12.7096	0.000350925	0.00295142
12.8029	12.7091	0.00018201	0.00414706
12.8034	12.7087	-0.00139469	0.00375553
12.8039	12.7082	-0.000341625	0.00310007
12.8043	12.7077	2.29575e-05	0.00228244
12.8048	12.7072	0.000473701	0.00289988
12.8053	12.7068	0.000136192	0.00414051
12.8057	12.7063	-0.00150332	0.00376127
12.8062	12.7058	-0.000322952	0.00305402
12.8067	12.7053	8.89112e-05	0.00228663
12.8072	12.7048	0.000367065	0.00301681
12.8076	12.7043	0.000154865	0.00417648
12.8081	12.7039	-0.00146724	0.00379676
12.8086	12.7034	-0.000342891	0.00295405
12.8091	12.7029	-1.41214e-05	0.00235717
12.8095	12.7025	0.000420749	0.00290283
12.81	12.702	0.000111651	0.00419967
12.8105	12.7015	-0.00146878	0.00375569
12.8109	12.7011	-0.00028614	0.00298117
12.8114	12.7006	0.000247963	0.00235717
12.8119	12.7001	0.000318715	0.00292028
12.8124	12.6996	0.000166404	0.00415017
12.8128	12.6992	-0.00142563	0.00375332
12.8133	12.6987	-0.000433386	0.00280368
12.8138	12.6983	7.48395e-05	0.00220632
12.8142	12.6978	0.000173271	0.00288415
12.8147	12.6973	0.000229023	0.00427038
12.8152	12.6968	-0.00146858	0.00368622
12.8157	12.6964	-0.000222987	0.00287325
12.8161	12.6959	0.000280905	0.00228867
12.8166	12.6954	0.000224689	0.00299034
12.8171	12.6949	0.000186344	0.00425932
12.8176	12.6944	-0.00147725	0.00377824
12.818	12.694	-0.000223789	0.00296028
12.8185	12.6935	0.000307247	0.00220197
12.819	12.693	0.000151797	0.00297805
12.8194	12.6926	0.000196545	0.00433651
12.8199	12.6921	-0.00144964	0.00367548
12.8204	12.6917	-0.000366433	0.00281409
12.8209	12.6912	0.000261697	0.00239438
12.8213	12.6907	0.000173806	0.00309417
12.8218	12.6902	0.000252297	0.0042839
12.8223	12.6898	-0.00139182	0.00379757
12.8227	12.6893	-0.000293542	0.0029234
12.8232	12.6888	0.000302378	0.00231514
12.8237	12.6884	0.000179138	0.00305713
12.8242	12.6879	0.000208816	0.00421368
12.8246	12.6874	-0.00139262	0.00363221
12.8251	12.687	-0.000330353	0.00288243
12.8256	12.6865	0.000362464	0.00232963
12.8261	12.686	0.000153599	0.00304328
12.8265	12.6855	0.000111383	0.00426866
12.827	12.685	-0.00132	0.00363737
12.8275	12.6846	-0.00042165	0.00278172
12.8279	12.6841	0.000435284	0.0024551
12.8284	12.6836	0.000154865	0.00311752
12.8289	12.6831	1.0687e-05	0.00431316
12.8294	12.6827	-0.00131513	0.00363082
12.8298	12.6822	-0.000353628	0.0027764
12.8303	12.6817	0.000580265	0.00232153
12.8308	12.6813	7.35732e-05	0.00313342
12.8312	12.6808	3.54955e-05	0.00423999
12.8317	12.6803	-0.00135861	0.00369604
12.8322	12.6798	-0.000392972	0.00265266
12.8327	12.6794	0.000571062	0.0024129
12.8331	12.6789	0.000130057	0.00314244
12.8336	12.6784	-5.06653e-05	0.00426989
12.8341	12.678	-0.00123637	0.00373292
12.8346	12.6775	-0.000357231	0.00261374
12.835	12.677	0.000601542	0.0024115
12.8355	12.6765	0.000119587	0.00315817
12.836	12.676	-1.41214e-05	0.00432283
12.8364	12.6756	-0.00120803	0.00368343
12.8369	12.6751	-0.000380434	0.00265594
12.8374	12.6746	0.000602541	0.00242986
12.8379	12.6741	-7.18366e-06	0.00315178
12.8383	12.6736	1.48419e-06	0.0042853
12.8388	12.6732	-0.00118709	0.00363065
12.8393	12.6727	-0.000458997	0.0025535
12.8397	12.6723	0.00067743	0.00249697
12.8402	12.6718	-2.07916e-05	0.00321529
12.8407	12.6713	-0.000160832	0.00423892
12.8412	12.6709	-0.00111367	0.00366367
12.8416	12.6704	-0.000507544	0.00249434
12.8421	12.6699	0.00075412	0.00242117
12.8426	12.6694	8.86437e-05	0.00332427
12.8431	12.669	-0.000117154	0.00424047
12.8435	12.6685	-0.00117509	0.00365138
12.844	12.6681	-0.000539486	0.00256596
12.8445	12.6676	0.0006869	0.00246648
12.8449	12.6671	-8.21439e-05	0.00323553
12.8454	12.6666	-0.000194308	0.00424391
12.8459	12.6662	-0.001104	0.00362319
12.8464	12.6657	-0.000491938	0.0025345
12.8468	12.6652	0.000722178	0.00256096
12.8473	12.6647	-2.33242e-05	0.00330156
12.8478	12.6642	-0.000280005	0.00420139
12.8482	12.6638	-0.00104491	0.00361369
12.8487	12.6633	-0.000458194	0.00250647
12.8492	12.6628	0.000805003	0.00248623
12.8497	12.6624	-9.51996e-06	0.00328706
12.8501	12.6619	-0.000268002	0.00438945
12.8506	12.6615	-0.00102524	0.00368777
12.8511	12.661	-0.000429052	0.00245042
12.8516	12.6605	0.000753585	0.00255425
12.852	12.66	-5.49992e-05	0.00339417
12.8525	12.6596	-0.000431585	0.00434709
12.853	12.6591	-0.000965153	0.0035651
12.8534	12.6586	-0.000478134	0.00248344
12.8539	12.6582	0.000863288	0.00250524
12.8544	12.6577	1.83561e-05	0.00339245
12.8549	12.6572	-0.000249596	0.00436502
12.8553	12.6567	-0.000923206	0.00359517
12.8558	12.6563	-0.000605975	0.00243797
12.8563	12.6558	0.000873293	0.00267553
12.8567	12.6553	-2.61243e-05	0.00340351
12.8572	12.6548	-0.000454324	0.00428095
12.8577	12.6543	-0.000974891	0.00368547
12.8582	12.6539	-0.000507009	0.00233645
12.8586	12.6534	0.000914706	0.00261079
12.8591	12.6529	1.5021e-05	0.00346332
12.8596	12.6525	-0.000512145	0.00426538
12.8601	12.652	-0.000940612	0.00358132
12.8605	12.6515	-0.000507009	0.00230424
12.861	12.651	0.000926174	0.00266823
12.8615	12.6506	-0.000117422	0.00355018
12.8619	12.6501	-0.000609042	0.00422785
12.8624	12.6496	-0.000886127	0.00345816
12.8629	12.6492	-0.000572962	0.0022949
12.8634	12.6487	0.00106295	0.00265078
12.8638	12.6482	-0.000168768	0.00346906
12.8643	12.6477	-0.000450525	0.00423269
12.8648	12.6473	-0.000858322	0.0034784
12.8652	12.6468	-0.000553558	0.00232169
12.8657	12.6463	0.00102127	0.00258088
12.8662	12.6458	-0.000192311	0.00356854
12.8667	12.6453	-0.00063205	0.00420123
12.8671	12.6449	-0.000768291	0.00352199
12.8676	12.6444	-0.000545889	0.00232587
12.8681	12.6439	0.00105888	0.00268782
12.8686	12.6435	-0.000169303	0.00357772
12.869	12.643	-0.000768826	0.00423392
12.8695	12.6425	-0.000771359	0.00354674
12.87	12.6421	-0.000557624	0.00214109
12.8704	12.6416	0.00103254	0.00271166
12.8709	12.6411	-8.00751e-05	0.00365712
12.8714	12.6407	-0.000719477	0.00406438
12.8719	12.6402	-0.000673195	0.00349896
12.8723	12.6397	-0.000650188	0.00234439
12.8728	12.6393	0.000948646	0.0027224
12.8733	12.6388	-9.44144e-05	0.0036182
12.8737	12.6383	-0.000760354	0.00422179
12.8742	12.6379	-0.000658856	0.00356076
12.8747	12.6374	-0.000659123	0.00213642
12.8752	12.6369	0.00096352	0.00281753
12.8756	12.6364	-4.09986e-05	0.003576
12.8761	12.636	-0.000801767	0.00424219
12.8766	12.6355	-0.000561227	0.00344104
12.8771	12.635	-0.000723811	0.00224991
12.8775	12.6345	0.000903702	0.00284228
12.878	12.634	-7.36724e-05	0.00369481
12.8785	12.6336	-0.00096749	0.00423064
12.8789	12.6331	-0.000647655	0.00341006
12.8794	12.6326	-0.000536686	0.00214871
12.8799	12.6322	0.000938444	0.00281114
12.8804	12.6317	-0.000133758	0.00364048
12.8808	12.6312	-0.000849119	0.00412977
12.8813	12.6308	-0.000578634	0.00335836
12.8818	12.6303	-0.000716409	0.00221738
12.8822	12.6298	0.000891164	0.0028812
12.8827	12.6293	-4.91315e-05	0.00359501
12.8832	12.6289	-0.00094928	0.00420123
12.8837	12.6284	-0.000523881	0.00331042
12.8841	12.628	-0.000514945	0.00215371
12.8846	12.6275	0.000965589	0.00270371
12.8851	12.627	-1.15176e-05	0.0036291
12.8856	12.6265	-0.000888998	0.00416542
12.886	12.626	-0.000518013	0.00333812
12.8865	12.6256	-0.000525147	0.00221877
12.887	12.6251	0.000923106	0.00280631
12.8874	12.6246	-2.45905e-05	0.00366212
12.8879	12.6241	-0.0010071	0.00413632
12.8884	12.6236	-0.000549955	0.00325781
12.8889	12.6232	-0.000530283	0.00222049
12.8893	12.6227	0.000797602	0.00283933
12.8898	12.6222	-1.69215e-05	0.00377233
12.8903	12.6218	-0.00101604	0.00404307
12.8907	12.6213	-0.000600838	0.00322683
12.8912	12.6208	-0.000478401	0.00223745
12.8917	12.6203	0.000824943	0.00267134
12.8922	12.6199	-2.23254e-05	0.00376717
12.8926	12.6194	-0.00105691	0.00401226
12.8931	12.6189	-0.000448991	0.00317808
12.8936	12.6185	-0.000426252	0.00221517
12.8941	12.618	0.000803737	0.00284056
12.8945	12.6175	-0.000171569	0.00382822
12.895	12.617	-0.00109219	0.00404103
12.8955	12.6166	-0.000438986	0.00322618
12.8959	12.6161	-0.000421383	0.0022395
12.8964	12.6156	0.000705306	0.00284228
12.8969	12.6151	-1.25876e-05	0.00383428
12.8974	12.6147	-0.00112827	0.0039962
12.8978	12.6142	-0.000475869	0.00320127
12.8983	12.6137	-0.000526484	0.00214855
12.8988	12.6133	0.000685366	0.00292479
