# 1304     AichiSR QXAFS
# Start     : 8.9544
# End       : 9.0544
# Dir       : Backward
# Points    : 300
# ScanTime  : 1.01549
# Date      : 13.04.23 22:53
# Ring Cur. : 1[mA]
12.7557	12.6121	-0.00103598	0.00345628
12.7562	12.6126	-0.000601373	0.00233259
12.7566	12.613	0.000878626	0.00262292
12.7571	12.6135	-7.82738e-05	0.00341022
12.7576	12.6139	-0.000501872	0.00421245
12.7581	12.6144	-0.000959286	0.00363344
12.7585	12.6149	-0.000536954	0.00228695
12.759	12.6154	0.00105862	0.00260332
12.7595	12.6159	-0.000124288	0.00346938
12.7599	12.6163	-0.000580631	0.00418754
12.7604	12.6168	-0.000890996	0.00355797
12.7609	12.6173	-0.000660193	0.00220181
12.7614	12.6178	0.000912905	0.0027246
12.7618	12.6182	-0.000175439	0.00343637
12.7623	12.6187	-0.000712075	0.00412354
12.7628	12.6192	-0.000817105	0.00347201
12.7632	12.6196	-0.00070207	0.00218468
12.7637	12.6201	0.000985261	0.00263258
12.7642	12.6206	-3.37934e-05	0.00346111
12.7647	12.6211	-0.000733548	0.00416418
12.7651	12.6215	-0.000790299	0.00340244
12.7656	12.622	-0.000659123	0.00228367
12.7661	12.6225	0.00107495	0.00266995
12.7666	12.6229	-0.000106881	0.00361476
12.767	12.6234	-0.000746818	0.00420327
12.7675	12.6239	-0.000712343	0.00345988
12.768	12.6243	-0.000669128	0.00218124
12.7684	12.6248	0.00105041	0.00275992
12.7689	12.6253	-0.000216852	0.00360263
12.7694	12.6258	-0.000873392	0.00418614
12.7699	12.6263	-0.000729946	0.00352495
12.7703	12.6267	-0.000564027	0.00219837
12.7708	12.6272	0.00099853	0.002603
12.7713	12.6277	-8.85467e-05	0.00352699
12.7717	12.6282	-0.000863387	0.00422163
12.7722	12.6286	-0.000719209	0.0033663
12.7727	12.6291	-0.000662993	0.00213658
12.7732	12.6296	0.000845881	0.00271649
12.7736	12.63	-0.000138092	0.00359377
12.7741	12.6305	-0.00107125	0.00412199
12.7746	12.631	-0.0005799	0.00341285
12.7751	12.6315	-0.000628179	0.00215043
12.7755	12.6319	0.000836214	0.00270355
12.776	12.6324	-0.000159031	0.00372751
12.7765	12.6329	-0.000908866	0.00410846
12.7769	12.6333	-0.000608507	0.00324068
12.7774	12.6338	-0.000613911	0.00216551
12.7779	12.6343	0.000774327	0.00279074
12.7784	12.6347	-0.000101548	0.00372595
12.7788	12.6352	-0.000984094	0.00404709
12.7793	12.6357	-0.000559961	0.00336802
12.7798	12.6362	-0.000532352	0.00212036
12.7802	12.6367	0.000768192	0.00276943
12.7807	12.6371	-6.26682e-05	0.00381683
12.7812	12.6376	-0.000937277	0.00407388
12.7817	12.6381	-0.000541822	0.0032016
12.7821	12.6385	-0.000364632	0.00215306
12.7826	12.639	0.000718111	0.00277754
12.7831	12.6395	-9.87483e-05	0.00376643
12.7836	12.6399	-0.00115715	0.00403963
12.784	12.6404	-0.000580631	0.00316267
12.7845	12.6409	-0.000316549	0.00220615
12.785	12.6414	0.000755386	0.00283949
12.7854	12.6418	-5.6533e-05	0.0039386
12.7859	12.6423	-0.00119396	0.00394982
12.7864	12.6427	-0.0003649	0.00317685
12.7869	12.6432	-0.000327286	0.00204424
12.7873	12.6437	0.000648751	0.00279836
12.7878	12.6441	1.34872e-05	0.00408027
12.7883	12.6446	-0.00120469	0.00389221
12.7887	12.6451	-0.00060264	0.00307688
12.7892	12.6456	-0.000198981	0.00220272
12.7897	12.6461	0.000526581	0.00276615
12.7902	12.6465	-9.54132e-05	0.00384411
12.7906	12.647	-0.00135274	0.00394794
12.7911	12.6475	-0.000390707	0.00307876
12.7916	12.648	-0.000190509	0.00211167
12.7921	12.6485	0.000532984	0.00286284
12.7925	12.6489	0.000150531	0.00389705
12.793	12.6494	-0.00140029	0.00380175
12.7935	12.6499	-0.00044052	0.00303952
12.7939	12.6503	-8.00751e-05	0.00210217
12.7944	12.6508	0.000411813	0.00290472
12.7949	12.6513	2.60251e-05	0.00393425
12.7954	12.6518	-0.00137015	0.00387074
12.7958	12.6522	-0.000481201	0.00296978
12.7963	12.6527	1.96224e-05	0.00218312
12.7968	12.6532	0.000478035	0.00280942
12.7972	12.6536	4.38958e-05	0.00401505
12.7977	12.6541	-0.0014085	0.00385952
12.7982	12.6546	-0.000477599	0.00307672
12.7987	12.6551	6.15702e-05	0.00231047
12.7991	12.6555	0.000431753	0.00280835
12.7996	12.656	9.45115e-05	0.00405848
12.8001	12.6565	-0.0014205	0.00378012
12.8006	12.657	-0.000408845	0.00306958
12.801	12.6575	-1.33189e-05	0.0022345
12.8015	12.6579	0.000318982	0.00291062
12.802	12.6584	0.000161268	0.00418566
12.8024	12.6589	-0.00151153	0.00384813
12.8029	12.6593	-0.000448456	0.00305246
12.8034	12.6598	0.000141328	0.00227933
12.8039	12.6602	0.000285239	0.00305369
12.8043	12.6607	0.000147463	0.00425899
12.8048	12.6612	-0.00147771	0.00370538
12.8053	12.6617	-0.000381504	0.00305901
12.8057	12.6621	0.00014593	0.00217035
12.8062	12.6626	0.000233089	0.00304296
12.8067	12.6631	0.000191409	0.00411903
12.8072	12.6635	-0.0014325	0.00368998
12.8076	12.664	-0.0003649	0.00294176
12.8081	12.6645	0.000283972	0.00220803
12.8086	12.665	0.000110117	0.00294208
12.8091	12.6654	0.000236424	0.0041528
12.8095	12.6659	-0.00144117	0.00373201
12.81	12.6664	-0.000396575	0.00289194
12.8105	12.6669	0.000254099	0.00224057
12.8109	12.6673	8.12422e-05	0.00296855
12.8114	12.6678	0.000161	0.00428407
12.8119	12.6683	-0.00140769	0.0037616
12.8124	12.6688	-0.00040658	0.00287718
12.8128	12.6692	0.000416147	0.00236291
12.8133	12.6697	0.000151262	0.00298224
12.8138	12.6701	0.000165334	0.00435208
12.8142	12.6706	-0.00147365	0.00367908
12.8147	12.6711	-0.000388174	0.00291905
12.8152	12.6716	0.000297777	0.00232915
12.8157	12.672	5.36337e-05	0.003163
12.8161	12.6725	-2.11842e-06	0.00433823
12.8166	12.6729	-0.00143837	0.00369432
12.8171	12.6734	-0.000454859	0.0026402
12.8176	12.6739	0.000512046	0.0022899
12.818	12.6744	2.72914e-05	0.00313481
12.8185	12.6748	-6.86072e-05	0.00427939
12.819	12.6753	-0.00138775	0.00358894
12.8194	12.6758	-0.000479935	0.00266807
12.8199	12.6763	0.000561128	0.0024151
12.8204	12.6768	-1.53877e-05	0.00304779
12.8209	12.6772	7.33057e-05	0.00423892
12.8213	12.6777	-0.00139615	0.00369604
12.8218	12.6782	-0.000534082	0.0027006
12.8223	12.6787	0.000578998	0.00241773
12.8227	12.6791	-2.76582e-05	0.00319816
12.8232	12.6796	-0.000117422	0.00417803
12.8237	12.6801	-0.00131946	0.0035519
12.8242	12.6805	-0.000441055	0.00254196
12.8246	12.681	0.000584135	0.00239798
12.8251	12.6815	-0.000158299	0.00313121
12.8256	12.682	-0.000108486	0.0042671
12.8261	12.6824	-0.00117655	0.00360698
12.8265	12.6829	-0.000525414	0.00255957
12.827	12.6834	0.000606143	0.00243207
12.8275	12.6838	-0.00013556	0.00325888
12.8279	12.6843	-0.000201513	0.00428095
12.8284	12.6848	-0.00126225	0.00357493
12.8289	12.6853	-0.000478936	0.00254351
12.8294	12.6858	0.000746718	0.00252328
12.8298	12.6862	-6.68058e-05	0.00331198
12.8303	12.6867	-0.00025393	0.0042839
12.8308	12.6872	-0.00107992	0.0036604
12.8312	12.6877	-0.000469198	0.00248172
12.8317	12.6881	0.000792733	0.00243748
12.8322	12.6886	-4.01961e-05	0.00328502
12.8327	12.6891	-0.000222987	0.0042998
12.8331	12.6895	-0.00100756	0.00339277
12.8336	12.69	-0.000656591	0.00242551
12.8341	12.6905	0.000877092	0.00249853
12.8346	12.6909	4.49658e-05	0.00329141
12.835	12.6914	-0.000412715	0.00429824
12.8355	12.6919	-0.00094648	0.00358518
12.836	12.6924	-0.000560959	0.00239298
12.8364	12.6928	0.000788131	0.00253589
12.8369	12.6933	-4.35312e-05	0.00328256
12.8374	12.6937	-0.0004794	0.00422974
12.8379	12.6942	-0.000982293	0.00351405
12.8383	12.6947	-0.000525949	0.00236029
12.8388	12.6952	0.000927975	0.00260284
12.8393	12.6956	1.21669e-06	0.00333033
12.8397	12.6961	-0.000577564	0.00429808
12.8402	12.6966	-0.000929341	0.0034689
12.8407	12.6971	-0.000617978	0.00237709
12.8412	12.6976	0.000880695	0.00246428
12.8416	12.698	-0.000123824	0.00346176
12.8421	12.6985	-0.000660924	0.00426989
12.8426	12.6989	-0.000991496	0.00351249
12.8431	12.6994	-0.000641252	0.0024006
12.8435	12.6999	0.00103841	0.0026321
12.844	12.7003	-0.000150166	0.00349365
12.8445	12.7008	-0.000646121	0.00422163
12.8449	12.7013	-0.000803836	0.00349971
12.8454	12.7018	-0.00070207	0.00238831
12.8459	12.7022	0.00112997	0.00264332
12.8464	12.7027	-0.000157301	0.00355125
12.8468	12.7032	-0.000610041	0.00416435
12.8473	12.7036	-0.000715143	0.00354502
12.8478	12.7041	-0.000691066	0.00220836
12.8482	12.7046	0.000999797	0.00273329
12.8487	12.7051	-7.16036e-05	0.00350986
12.8492	12.7056	-0.000651187	0.00420515
12.8497	12.706	-0.00070207	0.00354969
12.8501	12.7065	-0.000769093	0.00211634
12.8506	12.707	0.00101053	0.00277909
12.8511	12.7075	-0.000176438	0.0035905
12.8516	12.708	-0.000814038	0.00406905
12.852	12.7084	-0.000763226	0.00332771
12.8525	12.7089	-0.000722812	0.00224835
12.853	12.7094	0.00106755	0.0027741
12.8534	12.7098	-0.00013556	0.0035192
12.8539	12.7103	-0.000745284	0.00403915
12.8544	12.7108	-0.000522882	0.00335884
12.8549	12.7113	-0.000760889	0.00213282
12.8553	12.7117	0.000887829	0.00270667
12.8558	12.7122	-0.000124021	0.00367613
12.8563	12.7127	-0.000862923	0.00408306
12.8567	12.7131	-0.000505742	0.00337753
12.8572	12.7136	-0.000621313	0.00210012
12.8577	12.7141	0.000906234	0.00271494
12.8582	12.7145	-0.00016777	0.00370071
12.8586	12.715	-0.000959018	0.00407904
12.8591	12.7155	-0.000663992	0.00330215
12.8596	12.716	-0.000613644	0.0022155
12.8601	12.7165	0.000785599	0.00274419
12.8605	12.7169	0.000118589	0.00366474
12.861	12.7174	-0.00106259	0.00406127
12.8615	12.7179	-0.000517745	0.00333345
12.8619	12.7184	-0.000524148	0.00222049
12.8624	12.7188	0.000891164	0.00275697
12.8629	12.7193	-6.21332e-05	0.00389688
12.8634	12.7197	-0.0011178	0.00409928
12.8638	12.7202	-0.000433386	0.00328116
12.8643	12.7207	-0.000525949	0.00211339
12.8648	12.7212	0.000694569	0.00285489
12.8652	12.7216	-5.73355e-05	0.00380331
12.8657	12.7221	-0.00109426	0.00392131
12.8662	12.7226	-0.000491403	0.00317497
12.8667	12.723	-0.000361564	0.00213158
12.8671	12.7235	0.00073418	0.00272256
12.8676	12.7239	-0.000124556	0.00384518
12.8681	12.7244	-0.00123257	0.00396243
12.8686	12.7249	-0.000453593	0.00323069
12.869	12.7254	-0.000288673	0.00207505
12.8695	12.7259	0.000711173	0.00282998
12.87	12.7263	-6.80722e-05	0.00389828
12.8704	12.7268	-0.00123924	0.00396383
12.8709	12.7273	-0.000394042	0.0031412
12.8714	12.7278	-0.000329087	0.00219681
12.8719	12.7282	0.000650285	0.00282655
12.8723	12.7287	5.85026e-05	0.00406954
12.8728	12.7292	-0.00136375	0.00387541
12.8733	12.7296	-0.00041885	0.0031798
12.8737	12.7301	-0.000255464	0.00221893
12.8742	12.7306	0.000497707	0.00288259
12.8747	12.7311	1.19533e-05	0.00408897
12.8752	12.7315	-0.00121597	0.00391648
12.8756	12.732	-0.000457927	0.00302084
12.8761	12.7325	-0.000180843	0.00223155
12.8766	12.7329	0.000462429	0.00292447
12.8771	12.7334	3.18928e-05	0.00403496
12.8775	12.7339	-0.00142357	0.00378602
12.878	12.7344	-0.000520545	0.00312015
12.8785	12.7348	-0.000204046	0.00225286
12.8789	12.7353	0.000472631	0.00285924
12.8794	12.7358	4.69634e-05	0.00410084
12.8799	12.7363	-0.00134841	0.00384862
12.8804	12.7368	-0.000339289	0.00301182
12.8808	12.7372	-5.64985e-06	0.00212519
12.8813	12.7377	0.000388075	0.00292372
12.8818	12.7382	9.07125e-05	0.00408446
12.8822	12.7387	-0.00151299	0.00376004
12.8827	12.7391	-0.000487604	0.00300452
12.8832	12.7396	6.62061e-06	0.00213888
12.8837	12.7401	0.000388271	0.00289661
12.8841	12.7405	9.68478e-05	0.00413133
12.8846	12.741	-0.00140696	0.00383788
12.8851	12.7415	-0.000476868	0.0029883
12.8856	12.742	5.81811e-06	0.0023248
12.886	12.7424	0.00036653	0.00289366
12.8865	12.7429	8.40423e-05	0.00415452
12.887	12.7433	-0.00150919	0.00376815
12.8874	12.7438	-0.000339556	0.00285801
12.8879	12.7443	0.000118054	0.00229973
12.8884	12.7448	0.000287842	0.00287653
12.8889	12.7452	0.000116252	0.00419172
12.8893	12.7457	-0.00139776	0.0036758
12.8898	12.7462	-0.000228123	0.0029679
12.8903	12.7467	0.00011932	0.00232136
12.8907	12.7472	0.000224154	0.00294954
12.8912	12.7476	6.33715e-05	0.00422023
12.8917	12.7481	-0.00149052	0.00362443
12.8922	12.7486	-0.000449259	0.00287309
12.8926	12.749	0.000245895	0.00223622
12.8931	12.7495	6.92392e-05	0.00295577
12.8936	12.75	0.000173538	0.00413648
12.8941	12.7504	-0.00140336	0.00375816
12.8945	12.7509	-0.000364632	0.00283031
12.895	12.7514	0.000266565	0.00225941
12.8955	12.7519	0.000103982	0.00298256
12.8959	12.7523	0.000198543	0.00432545
12.8964	12.7528	-0.0014159	0.00368982
12.8969	12.7532	-0.000477599	0.00272052
12.8974	12.7537	0.000421016	0.0022323
12.8978	12.7542	0.000109118	0.00296962
12.8983	12.7546	3.5763e-05	0.00414894
12.8988	12.7551	-0.00137802	0.0037121
