# 1304     AichiSR QXAFS
# Start     : 8.9544
# End       : 9.0544
# Dir       : Forward
# Points    : 300
# ScanTime  : 1.01549
# Date      : 13.04.23 22:40
# Ring Cur. : 0.9[mA]
12.7557	12.7559	-0.000909401	0.00351126
12.7562	12.7554	-0.000533351	0.00248591
12.7566	12.7549	0.000747717	0.0025068
12.7571	12.7545	-7.39399e-05	0.00319209
12.7576	12.754	-0.000250863	0.00419065
12.7581	12.7535	-0.00103471	0.00353944
12.7585	12.753	-0.0003705	0.00232947
12.759	12.7526	0.000752854	0.00258137
12.7595	12.7521	-0.000210449	0.00325297
12.7599	12.7517	-0.000337291	0.00412403
12.7604	12.7512	-0.000937545	0.00349848
12.7609	12.7507	-0.000516479	0.00234906
12.7614	12.7502	0.000855619	0.00255613
12.7618	12.7498	-5.96006e-05	0.00320675
12.7623	12.7493	-0.000390974	0.00413493
12.7628	12.7489	-0.000952883	0.00343497
12.7632	12.7484	-0.000550223	0.00230424
12.7637	12.7479	0.000779196	0.00246304
12.7642	12.7474	-0.000224521	0.00336319
12.7647	12.747	-0.000364365	0.00430119
12.7651	12.7465	-0.000958751	0.00354052
12.7656	12.746	-0.000557624	0.00236619
12.7661	12.7455	0.0010016	0.00259924
12.7666	12.7451	-4.68663e-05	0.00337532
12.767	12.7446	-0.00039604	0.0042249
12.7675	12.7441	-0.000832443	0.00346643
12.768	12.7436	-0.000524148	0.00225876
12.7684	12.7432	0.000958384	0.0025885
12.7689	12.7427	-4.56e-05	0.00347062
12.7694	12.7422	-0.000452594	0.00419484
12.7699	12.7418	-0.000885128	0.00362287
12.7703	12.7413	-0.000498805	0.0022468
12.7708	12.7408	0.000929777	0.00267913
12.7713	12.7403	-8.52115e-05	0.00336303
12.7717	12.7399	-0.000467397	0.00427768
12.7722	12.7394	-0.000774694	0.00351372
12.7727	12.7389	-0.000578366	0.00228367
12.7732	12.7385	0.00103841	0.00253122
12.7736	12.738	-0.000122023	0.00345612
12.7741	12.7375	-0.000511878	0.00428686
12.7746	12.7371	-0.000900002	0.00350905
12.7751	12.7366	-0.00060931	0.0022214
12.7755	12.7361	0.00096245	0.0026357
12.776	12.7356	-6.78047e-05	0.0034798
12.7765	12.7351	-0.000679598	0.00416263
12.7769	12.7347	-0.000735082	0.00343358
12.7774	12.7342	-0.000611575	0.00225254
12.7779	12.7337	0.00119846	0.00270404
12.7784	12.7332	-0.000100746	0.00343637
12.7788	12.7328	-0.000665793	0.00430833
12.7793	12.7323	-0.000825577	0.00342235
12.7798	12.7318	-0.00064992	0.00228137
12.7802	12.7314	0.000932844	0.00263537
12.7807	12.7309	-9.08118e-05	0.00350814
12.7812	12.7304	-0.00053542	0.00423097
12.7817	12.7299	-0.000804371	0.00353322
12.7821	12.7295	-0.000512876	0.0022359
12.7826	12.729	0.00104535	0.00272068
12.7831	12.7285	-5.96006e-05	0.00366163
12.7836	12.7281	-0.000678795	0.00416714
12.784	12.7276	-0.000663725	0.00343046
12.7845	12.7271	-0.00064152	0.00224417
12.785	12.7266	0.00093411	0.00264176
12.7854	12.7262	-0.00016777	0.00345472
12.7859	12.7257	-0.000633583	0.00404897
12.7864	12.7252	-0.00077316	0.00337672
12.7869	12.7247	-0.000579633	0.00227278
12.7873	12.7243	0.00104328	0.00265217
12.7878	12.7238	-0.000175706	0.00357525
12.7883	12.7233	-0.000724881	0.00416263
12.7887	12.7228	-0.000655324	0.00328878
12.7892	12.7224	-0.00053435	0.00216133
12.7897	12.7219	0.000873293	0.00287186
12.7902	12.7215	-8.36777e-05	0.00355813
12.7906	12.721	-0.000806904	0.00416107
12.7911	12.7205	-0.00050881	0.00338826
12.7916	12.72	-0.000596237	0.00222607
12.7921	12.7196	0.0010006	0.00266635
12.7925	12.7191	-5.06653e-05	0.00366711
12.793	12.7186	-0.000805637	0.00419098
12.7935	12.7182	-0.000609042	0.00330591
12.7939	12.7177	-0.000507544	0.0021456
12.7944	12.7172	0.000839549	0.00276771
12.7949	12.7168	-1.35864e-05	0.00367564
12.7954	12.7163	-0.000965956	0.00407512
12.7958	12.7158	-0.000574032	0.00334623
12.7963	12.7153	-0.000580899	0.00222688
12.7968	12.7148	0.00105501	0.00273485
12.7972	12.7144	-9.26131e-05	0.00366195
12.7977	12.7139	-0.000967686	0.00413863
12.7982	12.7134	-0.000551222	0.00331976
12.7987	12.7129	-0.000627448	0.00213158
12.7991	12.7125	0.000888096	0.00277844
12.7996	12.712	-3.65223e-06	0.00361181
12.8001	12.7116	-0.00084598	0.00405176
12.8006	12.7111	-0.000535687	0.00332271
12.801	12.7106	-0.000523346	0.00213175
12.8015	12.7101	0.00092571	0.00281082
12.802	12.7097	-7.06048e-05	0.0036699
12.8024	12.7092	-0.000964886	0.00400243
12.8029	12.7087	-0.000528749	0.00335605
12.8034	12.7083	-0.000605707	0.00205267
12.8039	12.7078	0.000821875	0.00273706
12.8043	12.7073	-0.000105419	0.00372112
12.8048	12.7068	-0.000977156	0.00400259
12.8053	12.7063	-0.000471999	0.00324208
12.8057	12.7059	-0.000371035	0.00217518
12.8062	12.7054	0.000943313	0.00288399
12.8067	12.7049	4.16307e-05	0.00377217
12.8072	12.7044	-0.00109706	0.00405848
12.8076	12.7039	-0.00054769	0.00318275
12.8081	12.7035	-0.000491938	0.00219402
12.8086	12.703	0.000832077	0.0028127
12.8091	12.7025	-0.000119419	0.00367768
12.8095	12.7021	-0.00116942	0.00396334
12.81	12.7016	-0.000574496	0.00324954
12.8105	12.7011	-0.000322952	0.00209749
12.8109	12.7006	0.000617879	0.00277812
12.8114	12.7002	-8.80117e-05	0.00383928
12.8119	12.6997	-0.00125025	0.00404602
12.8124	12.6992	-0.000459996	0.00323085
12.8128	12.6988	-0.000265933	0.0021996
12.8133	12.6983	0.000735714	0.00272567
12.8138	12.6979	-2.61243e-05	0.00384395
12.8142	12.6974	-0.00116408	0.00402685
12.8147	12.6969	-0.000342624	0.00313154
12.8152	12.6964	-0.000330086	0.00222312
12.8157	12.696	0.000633217	0.00289645
12.8161	12.6955	-2.20579e-05	0.00380396
12.8166	12.695	-0.00117942	0.00391648
12.8171	12.6945	-0.000404244	0.00315457
12.8176	12.694	-0.000272069	0.0021937
12.818	12.6936	0.000726779	0.00277206
12.8185	12.6931	8.79124e-05	0.00386575
12.819	12.6926	-0.00118322	0.0039168
12.8194	12.6922	-0.000477599	0.00310351
12.8199	12.6917	-0.000168305	0.00209996
12.8204	12.6913	0.000687167	0.00285989
12.8209	12.6908	-3.45959e-05	0.00389812
12.8213	12.6903	-0.0012175	0.00383026
12.8218	12.6898	-0.000382039	0.0031317
12.8223	12.6894	-0.000157033	0.00216927
12.8227	12.6889	0.000629882	0.00276132
12.8232	12.6884	0.000122923	0.00381855
12.8237	12.688	-0.00120676	0.00378462
12.8242	12.6875	-0.000487069	0.00310802
12.8246	12.687	-0.000212785	0.00213985
12.8251	12.6865	0.000553922	0.00294176
12.8256	12.6861	2.269e-05	0.00398997
12.8261	12.6856	-0.00135194	0.00392286
12.8265	12.6851	-0.000351559	0.00295856
12.827	12.6846	-0.000245994	0.00221582
12.8275	12.6841	0.000574397	0.00279541
12.8279	12.6837	7.91734e-05	0.00401767
12.8284	12.6832	-0.00140796	0.00375692
12.8289	12.6827	-0.000350293	0.00300903
12.8294	12.6823	-3.27946e-05	0.00229039
12.8298	12.6818	0.000498705	0.00283031
12.8303	12.6813	8.55761e-05	0.00402734
12.8308	12.6808	-0.00146498	0.0038251
12.8312	12.6804	-0.000299142	0.00292775
12.8317	12.6799	-5.52667e-05	0.00212847
12.8322	12.6794	0.000405946	0.00283449
12.8327	12.679	0.000225688	0.00392303
12.8331	12.6785	-0.00137088	0.00380658
12.8336	12.678	-0.000386105	0.00291094
12.8341	12.6776	-6.01356e-05	0.00221893
12.8346	12.6771	0.000463428	0.00280524
12.835	12.6766	0.000123921	0.00405692
12.8355	12.6761	-0.00140336	0.00376455
12.836	12.6756	-0.000312215	0.00294471
12.8364	12.6752	2.52226e-05	0.00221738
12.8369	12.6747	0.000355062	0.002898
12.8374	12.6742	0.000124189	0.00407528
12.8379	12.6737	-0.0014279	0.00371161
12.8383	12.6732	-0.000391973	0.00296511
12.8388	12.6728	2.44913e-05	0.00219354
12.8393	12.6723	0.000284775	0.00291701
12.8397	12.6719	9.17113e-05	0.00407249
12.8402	12.6714	-0.00161889	0.00376782
12.8407	12.6709	-0.000352897	0.00284588
12.8412	12.6704	0.000123386	0.0021646
12.8416	12.67	0.000351995	0.00285055
12.8421	12.6695	0.000190143	0.0042358
12.8426	12.669	-0.00152967	0.00370179
12.8431	12.6686	-0.000318885	0.00290128
12.8435	12.6681	0.000131055	0.00213486
12.844	12.6677	0.00038647	0.00294208
12.8445	12.6672	0.000122655	0.00413133
12.8449	12.6667	-0.00149919	0.00364295
12.8454	12.6662	-0.000461797	0.00285022
12.8459	12.6657	0.000107584	0.00227342
12.8464	12.6653	0.000179406	0.00291996
12.8468	12.6648	0.000182741	0.0041623
12.8473	12.6643	-0.00148745	0.00362303
12.8478	12.6638	-0.000316549	0.00277721
12.8482	12.6634	0.000233089	0.00214109
12.8487	12.6629	0.000303644	0.00296183
12.8492	12.6624	0.000207014	0.00423982
12.8497	12.662	-0.00149665	0.00365433
12.8501	12.6615	-0.000374299	0.00303501
12.8506	12.661	0.00021315	0.00228072
12.8511	12.6606	0.000308781	0.00291668
12.8516	12.6601	0.000201949	0.00422957
12.852	12.6596	-0.00147545	0.00357493
12.8525	12.6592	-0.000307881	0.0028113
12.853	12.6587	0.000290643	0.00229833
12.8534	12.6582	0.000210617	0.00294348
12.8539	12.6578	0.000206283	0.00415345
12.8544	12.6573	-0.00135347	0.00377561
12.8549	12.6568	-0.000280005	0.00283326
12.8553	12.6563	0.000294976	0.00230735
12.8558	12.6558	0.000223155	0.00295077
12.8563	12.6554	0.000177872	0.00424031
12.8567	12.6549	-0.00142176	0.00360419
12.8572	12.6544	-0.000262063	0.00278918
12.8577	12.6539	0.000295975	0.0023466
12.8582	12.6535	0.000102716	0.00303517
12.8586	12.653	0.000228488	0.004219
12.8591	12.6525	-0.00137955	0.00364204
12.8596	12.6521	-0.000362831	0.0027355
12.8601	12.6516	0.00032485	0.00232136
12.8605	12.6511	0.000140526	0.00301526
12.861	12.6506	0.000105783	0.00427284
12.8615	12.6502	-0.00148085	0.00349397
12.8619	12.6497	-0.000341625	0.00270355
12.8624	12.6492	0.000448357	0.00229006
12.8629	12.6488	7.97084e-05	0.00300747
12.8634	12.6483	0.000156131	0.00419876
12.8638	12.6478	-0.00136401	0.00354879
12.8643	12.6473	-0.000335222	0.0026693
12.8648	12.6468	0.000434285	0.0023466
12.8652	12.6464	0.000132857	0.00311146
12.8657	12.6459	0.000124456	0.00418303
12.8662	12.6454	-0.00136448	0.00362893
12.8667	12.6449	-0.000464865	0.00272363
12.8671	12.6444	0.000438887	0.0022826
12.8676	12.644	1.68223e-05	0.00308343
12.8681	12.6435	3.00915e-05	0.00434086
12.8686	12.643	-0.00135021	0.00356543
12.869	12.6426	-0.000409647	0.00269904
12.8695	12.6421	0.00046423	0.00229334
12.87	12.6417	-1.58342e-06	0.0031739
12.8704	12.6412	5.26348e-05	0.00420638
12.8709	12.6407	-0.00117555	0.00361418
12.8714	12.6402	-0.00047273	0.00261341
12.8719	12.6398	0.000533252	0.00235669
12.8723	12.6393	9.60453e-05	0.00317513
12.8728	12.6389	4.26295e-05	0.0043356
12.8733	12.6384	-0.0013192	0.00357895
12.8737	12.6379	-0.000419849	0.00263725
12.8742	12.6374	0.000517111	0.0022622
12.8747	12.637	-3.35259e-05	0.00316874
12.8752	12.6365	-2.27892e-05	0.00433839
12.8756	12.636	-0.0012313	0.00356854
12.8761	12.6355	-0.000419849	0.00262882
12.8766	12.6351	0.000602273	0.00243469
12.8771	12.6346	4.77659e-05	0.00327166
12.8775	12.6341	-6.08669e-05	0.00425711
12.878	12.6336	-0.00116328	0.00362024
12.8785	12.6332	-0.000379703	0.00262308
12.8789	12.6327	0.000694301	0.00243314
12.8794	12.6322	-4.38354e-06	0.00323864
12.8799	12.6318	-0.000184374	0.00420048
12.8804	12.6313	-0.00122237	0.00358255
12.8808	12.6308	-0.000536151	0.00257744
12.8813	12.6303	0.000668227	0.00233382
12.8818	12.6299	1.52885e-05	0.00317636
12.8822	12.6294	-0.000164435	0.00419516
12.8827	12.6289	-0.00109553	0.00358615
12.8832	12.6285	-0.000543089	0.00255023
12.8837	12.628	0.000744917	0.00239593
12.8841	12.6275	-2.05241e-05	0.00315505
12.8846	12.6271	-0.000250595	0.00420106
12.8851	12.6266	-0.00100837	0.00341752
12.8856	12.6261	-0.00044159	0.00244157
12.886	12.6256	0.000773596	0.00249729
12.8865	12.6251	-0.000148561	0.00317562
12.887	12.6247	-0.000265202	0.00420418
12.8874	12.6242	-0.00114461	0.00358207
12.8879	12.6237	-0.000558694	0.00238831
12.8884	12.6232	0.00083188	0.00242208
12.8889	12.6228	-0.000177436	0.00322184
12.8893	12.6223	-0.0003761	0.00429013
12.8898	12.6218	-0.00107612	0.00354035
12.8903	12.6214	-0.000490404	0.00245789
12.8907	12.6209	0.000682031	0.00258899
12.8912	12.6204	-8.28752e-05	0.0033037
12.8917	12.6199	-0.000266736	0.00417508
12.8922	12.6195	-0.000920138	0.00349708
12.8926	12.619	-0.000476333	0.0023262
12.8931	12.6185	0.000901901	0.00261079
12.8936	12.6181	-6.09381e-05	0.00327305
12.8941	12.6176	-0.00041498	0.00423269
12.8945	12.6171	-0.0010247	0.00370743
12.895	12.6166	-0.000555894	0.00244715
12.8955	12.6161	0.000921573	0.00243019
12.8959	12.6157	-0.000121488	0.00338515
12.8964	12.6152	-0.000438255	0.00418426
12.8969	12.6147	-0.000940077	0.00351544
12.8974	12.6142	-0.000522347	0.00233521
12.8978	12.6138	0.000906234	0.00251238
12.8983	12.6133	-8.62104e-05	0.00345489
12.8988	12.6128	-0.000450525	0.0041841
