# 1304     AichiSR QXAFS
# Start     : 8.9544
# End       : 9.0544
# Dir       : Backward
# Points    : 300
# ScanTime  : 1.01549
# Date      : 13.04.24 00:07
# Ring Cur. : 1[mA]
12.7557	12.6124	-0.000307346	0.00215494
12.7562	12.6128	0.000669493	0.00276583
12.7566	12.6133	2.90927e-05	0.0037974
12.7571	12.6138	-0.0011168	0.0039109
12.7576	12.6142	-0.000472801	0.00313793
12.7581	12.6147	-0.000335954	0.00219697
12.7585	12.6152	0.000628615	0.00269904
12.759	12.6157	6.77054e-05	0.00376422
12.7595	12.6161	-0.00121697	0.00388099
12.7599	12.6166	-0.000391706	0.00306803
12.7604	12.6171	-0.000318618	0.0020444
12.7609	12.6176	0.000673631	0.00289194
12.7614	12.618	8.17772e-05	0.00383788
12.7618	12.6185	-0.00118376	0.00385501
12.7623	12.619	-0.000398108	0.003045
12.7628	12.6194	-0.000200711	0.00215166
12.7632	12.6199	0.000570331	0.00284023
12.7637	12.6204	5.72363e-05	0.00386575
12.7642	12.6209	-0.00126605	0.0038519
12.7647	12.6214	-0.000320687	0.00301493
12.7651	12.6218	-0.000232992	0.00208209
12.7656	12.6223	0.000459361	0.00278016
12.7661	12.6228	0.000151797	0.00390155
12.7666	12.6232	-0.00131747	0.00375365
12.767	12.6237	-0.000303012	0.00289226
12.7675	12.6242	-4.60638e-05	0.00216412
12.768	12.6246	0.000596405	0.00297617
12.7684	12.6251	0.0001526	0.00392163
12.7689	12.6256	-0.00133687	0.00379118
12.7694	12.6261	-0.000236791	0.00294627
12.7699	12.6266	2.68276e-05	0.00211881
12.7703	12.627	0.000466228	0.00287841
12.7708	12.6275	0.000185809	0.00395277
12.7713	12.628	-0.00130006	0.00369916
12.7717	12.6285	-0.000407846	0.00290144
12.7722	12.6289	-4.47975e-05	0.00220615
12.7727	12.6294	0.000462162	0.00293709
12.7732	12.6299	0.000142862	0.00403808
12.7736	12.6303	-0.00130186	0.00367006
12.7741	12.6308	-0.000278471	0.00300215
12.7746	12.6313	6.64391e-05	0.00220492
12.7751	12.6318	0.000439689	0.00284137
12.7755	12.6322	0.000167135	0.00412075
12.776	12.6327	-0.00134841	0.00376717
12.7765	12.6331	-0.000212785	0.00295577
12.7769	12.6336	0.000137726	0.00210012
12.7774	12.6341	0.000437888	0.00281146
12.7779	12.6345	0.000222085	0.00409429
12.7784	12.635	-0.00131187	0.00371816
12.7788	12.6355	-0.00028054	0.00281581
12.7793	12.636	0.000275037	0.00212724
12.7798	12.6365	0.000244628	0.00298396
12.7802	12.6369	0.000233624	0.00412215
12.7807	12.6374	-0.00144477	0.00356215
12.7812	12.6379	-0.000289208	0.00283949
12.7817	12.6384	0.000258433	0.00217657
12.7821	12.6388	0.000249961	0.00284448
12.7826	12.6393	0.000315647	0.00416558
12.7831	12.6397	-0.00131873	0.00365524
12.7836	12.6402	-0.000288405	0.00285506
12.784	12.6407	0.000420481	0.0022468
12.7845	12.6412	0.000247696	0.00280835
12.785	12.6416	0.00023489	0.00418459
12.7854	12.6421	-0.00148898	0.00352511
12.7859	12.6426	-0.000354894	0.00270683
12.7864	12.643	0.000456294	0.00227793
12.7869	12.6435	0.000212418	0.00296651
12.7873	12.644	0.000254099	0.0041192
12.7878	12.6444	-0.00137982	0.00360435
12.7883	12.6449	-0.000292543	0.00278655
12.7887	12.6454	0.000268634	0.00220911
12.7892	12.6459	8.43098e-05	0.00299469
12.7897	12.6463	0.000150531	0.00414534
12.7902	12.6468	-0.00128012	0.00358051
12.7906	12.6473	-0.000347225	0.0026357
12.7911	12.6478	0.000529382	0.00231202
12.7916	12.6483	5.81811e-06	0.00301042
12.7921	12.6487	0.000171737	0.00423408
12.7925	12.6492	-0.00126631	0.00358148
12.793	12.6497	-0.000439254	0.00268535
12.7935	12.6501	0.000470366	0.00227015
12.7939	12.6506	4.28431e-06	0.00300296
12.7944	12.6511	0.000142131	0.00415361
12.7949	12.6516	-0.00130059	0.00356403
12.7954	12.652	-0.000330888	0.00262743
12.7958	12.6525	0.000510512	0.00228727
12.7963	12.653	0.000143861	0.00310056
12.7968	12.6534	7.53745e-05	0.0040901
12.7972	12.6539	-0.00128526	0.0035374
12.7977	12.6544	-0.00044332	0.00266807
12.7982	12.6549	0.000485971	0.00230284
12.7987	12.6553	3.4693e-05	0.00306459
12.7991	12.6558	5.89664e-05	0.00426866
12.7996	12.6563	-0.00119216	0.00363983
12.8001	12.6568	-0.000418048	0.00263865
12.8006	12.6572	0.000798868	0.00221271
12.801	12.6577	9.65803e-05	0.00315382
12.8015	12.6582	-2.15229e-05	0.0042322
12.802	12.6587	-0.00112674	0.00361369
12.8024	12.6591	-0.000447725	0.00249262
12.8029	12.6596	0.000671294	0.00228695
12.8034	12.6601	-4.25324e-05	0.00319086
12.8039	12.6605	6.81692e-06	0.00414255
12.8043	12.661	-0.00106592	0.00347856
12.8048	12.6615	-0.000465328	0.00241617
12.8053	12.662	0.000701971	0.0023525
12.8057	12.6624	-0.000179041	0.00315833
12.8062	12.6629	-0.000268002	0.00419844
12.8067	12.6633	-0.00115895	0.00353461
12.8072	12.6638	-0.000375904	0.00240716
12.8076	12.6643	0.000759988	0.00247845
12.8081	12.6648	-0.000157033	0.00316611
12.8086	12.6652	-0.000100817	0.00417524
12.8091	12.6657	-0.0010127	0.00345193
12.8095	12.6662	-0.000487337	0.00232636
12.81	12.6667	0.000757455	0.00242084
12.8105	12.6671	-0.000120685	0.0032329
12.8109	12.6676	-0.000194576	0.00412789
12.8114	12.6681	-0.00101144	0.00348914
12.8119	12.6686	-0.000443855	0.00233742
12.8124	12.669	0.00077686	0.00243019
12.8128	12.6695	-5.98681e-05	0.0032388
12.8133	12.6699	-0.000309147	0.00415935
12.8138	12.6704	-0.000925274	0.00353338
12.8142	12.6709	-0.00048887	0.00236963
12.8147	12.6714	0.000906234	0.0024864
12.8152	12.6718	-8.25365e-06	0.00329608
12.8157	12.6723	-0.000361832	0.00408773
12.8161	12.6727	-0.000838115	0.00339105
12.8166	12.6732	-0.000564027	0.00222172
12.8171	12.6737	0.000840816	0.0025222
12.8176	12.6742	-4.84002e-05	0.00339122
12.818	12.6746	-0.000513144	0.004155
12.8185	12.6751	-0.000927343	0.00338687
12.819	12.6756	-0.000562761	0.00235046
12.8194	12.6761	0.000988061	0.00257014
12.8199	12.6766	2.44913e-05	0.00342842
12.8204	12.677	-0.000605172	0.00410642
12.8209	12.6775	-0.00073428	0.00348323
12.8213	12.678	-0.000545621	0.0022082
12.8218	12.6785	0.000983192	0.00261792
12.8223	12.6789	-2.02566e-05	0.00334639
12.8227	12.6794	-0.00050041	0.00411157
12.8232	12.6799	-0.000754023	0.00345956
12.8237	12.6803	-0.00052108	0.00235111
12.8242	12.6808	0.000924373	0.00257277
12.8246	12.6813	-5.64985e-06	0.00343481
12.8251	12.6818	-0.000594703	0.00413616
12.8256	12.6822	-0.000706671	0.00337892
12.8261	12.6827	-0.000558694	0.00217394
12.8265	12.6832	0.00102	0.00267553
12.827	12.6836	-6.70022e-05	0.00344259
12.8275	12.6841	-0.00065379	0.00405225
12.8279	12.6846	-0.000730748	0.00335901
12.8284	12.6851	-0.00058937	0.00218173
12.8289	12.6855	0.00108649	0.00267069
12.8294	12.686	-0.000124092	0.00333238
12.8298	12.6865	-0.00061771	0.00397703
12.8303	12.687	-0.00067653	0.00334885
12.8308	12.6875	-0.000578099	0.00215633
12.8312	12.6879	0.000931043	0.00250583
12.8317	12.6884	-0.000151897	0.00346423
12.8322	12.6889	-0.00069647	0.00406143
12.8327	12.6893	-0.00059984	0.00342719
12.8331	12.6898	-0.000544088	0.00207275
12.8336	12.6903	0.000957849	0.00261497
12.8341	12.6907	-9.44144e-05	0.00345816
12.8346	12.6912	-0.000784432	0.0040493
12.835	12.6917	-0.000520349	0.00322651
12.8355	12.6922	-0.000583235	0.00220648
12.836	12.6926	0.000916704	0.00273968
12.8364	12.6931	-0.000123289	0.00352011
12.8369	12.6935	-0.000763226	0.00410051
12.8374	12.694	-0.000448991	0.00320192
12.8379	12.6945	-0.000598306	0.00208987
12.8383	12.695	0.000881159	0.00269937
12.8388	12.6954	7.61058e-05	0.00364467
12.8393	12.6959	-0.000865723	0.00409085
12.8397	12.6964	-0.000459996	0.00329018
12.8402	12.6969	-0.000459728	0.00215633
12.8407	12.6973	0.000897567	0.00274903
12.8412	12.6978	-2.61243e-05	0.00368531
12.8416	12.6983	-0.000877994	0.0039853
12.8421	12.6987	-0.00041498	0.00314367
12.8426	12.6992	-0.000464062	0.00208193
12.8431	12.6997	0.000932577	0.00273592
12.8435	12.7001	-3.38473e-06	0.00377233
12.844	12.7006	-0.00101297	0.0039227
12.8445	12.7011	-0.000466595	0.00330575
12.8449	12.7016	-0.000423719	0.00214855
12.8454	12.702	0.000871492	0.00272771
12.8459	12.7025	6.59041e-05	0.00371177
12.8464	12.703	-0.00097869	0.00395867
12.8468	12.7034	-0.000471999	0.00319021
12.8473	12.7039	-0.000430853	0.00205702
12.8478	12.7044	0.00072751	0.00277034
12.8482	12.7049	8.89112e-05	0.00379413
12.8487	12.7054	-0.00109733	0.00393581
12.8492	12.7058	-0.000349829	0.00313776
12.8497	12.7063	-0.00037157	0.00215649
12.8501	12.7068	0.000758721	0.00271461
12.8506	12.7073	1.5021e-05	0.00390074
12.8511	12.7078	-0.00113234	0.0038964
12.8516	12.7082	-0.000327553	0.00319676
12.852	12.7087	-0.000258532	0.00207897
12.8525	12.7092	0.000674897	0.00279262
12.853	12.7096	0.000114451	0.00385173
12.8534	12.7101	-0.00118756	0.00400071
12.8539	12.7106	-0.000451328	0.00309852
12.8544	12.711	-0.000214586	0.00218264
12.8549	12.7115	0.000593338	0.00281549
12.8553	12.712	5.79676e-05	0.0037711
12.8558	12.7125	-0.00129779	0.00400366
12.8563	12.7129	-0.000269268	0.00305042
12.8567	12.7134	-0.000173905	0.00204161
12.8572	12.7139	0.000602006	0.00275353
12.8577	12.7143	2.16912e-05	0.00375709
12.8582	12.7148	-0.001331	0.0038673
12.8586	12.7153	-0.000307346	0.00309917
12.8591	12.7158	-0.00011282	0.00201842
12.8596	12.7162	0.000562394	0.00290472
12.8601	12.7167	3.80281e-05	0.00394048
12.8605	12.7172	-0.001319	0.00375832
12.861	12.7177	-0.000316085	0.00304902
12.8615	12.7182	-0.000156034	0.00207881
12.8619	12.7186	0.000574397	0.00286858
12.8624	12.7191	0.000169739	0.0040166
12.8629	12.7195	-0.00133534	0.00380052
12.8634	12.72	-0.000349026	0.00303812
12.8638	12.7205	-1.7189e-05	0.00218436
12.8643	12.7209	0.000472631	0.00282655
12.8648	12.7214	9.68478e-05	0.00392147
12.8652	12.7219	-0.00136555	0.00381002
12.8657	12.7224	-0.000260333	0.00298798
12.8662	12.7228	9.4779e-05	0.00215215
12.8667	12.7233	0.000490038	0.00286268
12.8671	12.7237	0.000173538	0.00416139
12.8676	12.7242	-0.00149719	0.00364606
12.8681	12.7247	-0.000266468	0.0029416
12.8686	12.7252	3.39617e-05	0.00221877
12.869	12.7256	0.00045476	0.00282343
12.8695	12.7261	0.000195279	0.0040843
12.87	12.7266	-0.00134454	0.00363983
12.8704	12.7271	-0.000252129	0.00285661
12.8709	12.7275	0.000192943	0.00220599
12.8714	12.728	0.000421016	0.00293086
12.8719	12.7285	0.000230557	0.00411453
12.8723	12.729	-0.00138749	0.00369014
12.8728	12.7294	-0.00022172	0.00282236
12.8733	12.7299	8.71099e-05	0.00218951
12.8737	12.7304	0.00034586	0.00293537
12.8742	12.7308	0.000287575	0.00403947
12.8747	12.7313	-0.00144937	0.00355904
12.8752	12.7318	-0.000289208	0.00280212
12.8756	12.7323	0.000200612	0.00215773
12.8761	12.7327	0.000278907	0.00293102
12.8766	12.7332	0.000180405	0.00424375
12.8771	12.7337	-0.00150712	0.00363361
12.8775	12.7341	-0.000302745	0.0027909
12.878	12.7346	0.000314113	0.00230875
12.8785	12.7351	7.71758e-05	0.0029329
12.8789	12.7356	0.000259699	0.00411952
12.8794	12.7361	-0.00139235	0.00358271
12.8799	12.7365	-0.000210449	0.00271494
12.8804	12.737	0.000333322	0.00225302
12.8808	12.7375	0.000140793	0.00296651
12.8813	12.738	0.000185006	0.00415033
12.8818	12.7385	-0.00137855	0.00360279
12.8822	12.7389	-0.000389173	0.00266807
12.8827	12.7394	0.000266369	0.00208955
12.8832	12.7398	0.000126258	0.00294691
12.8837	12.7403	0.000222888	0.00420015
12.8841	12.7408	-0.00135888	0.00354535
12.8846	12.7413	-0.00027107	0.00264455
12.8851	12.7418	0.000428685	0.00219837
12.8856	12.7422	0.000184007	0.00293086
12.886	12.7427	0.000102448	0.0042095
12.8865	12.7431	-0.00135328	0.00348119
12.887	12.7436	-0.000408845	0.0027537
12.8874	12.7441	0.000535784	0.0023044
12.8879	12.7446	3.13578e-05	0.00297912
12.8884	12.745	0.000150531	0.00421524
12.8889	12.7455	-0.00133027	0.00363205
12.8893	12.746	-0.000298946	0.0026729
12.8898	12.7465	0.000565997	0.00234611
12.8903	12.7469	3.77606e-05	0.00300076
12.8907	12.7474	3.39617e-05	0.00414067
12.8912	12.7479	-0.00120496	0.00354363
12.8917	12.7484	-0.000363633	0.00262045
12.8922	12.7488	0.000539654	0.00227638
12.8926	12.7493	4.62321e-05	0.00299985
12.8931	12.7497	5.0031e-05	0.00419033
12.8936	12.7502	-0.00120576	0.00362459
12.8941	12.7507	-0.000374102	0.00263741
12.8945	12.7512	0.000683101	0.00237988
12.895	12.7516	0.000116787	0.00312982
12.8955	12.7521	-0.00015343	0.00424187
12.8959	12.7526	-0.00113007	0.00355625
12.8964	12.753	-0.000362563	0.00257014
12.8969	12.7535	0.000777395	0.00239126
12.8974	12.754	1.32197e-05	0.00319005
12.8978	12.7544	-0.000138895	0.00417541
12.8983	12.7549	-0.00109299	0.00357444
12.8988	12.7554	-0.000357962	0.00245665
