# 1304     AichiSR QXAFS
# Start     : 8.9544
# End       : 9.0544
# Dir       : Backward
# Points    : 300
# ScanTime  : 1.01549
# Date      : 13.04.23 23:14
# Ring Cur. : 0.9[mA]
12.7557	12.6123	0.000106051	0.00404618
12.7562	12.6127	-0.00148058	0.00379118
12.7566	12.6132	-0.000351095	0.00298191
12.7571	12.6136	5.0031e-05	0.00222033
12.7576	12.6141	0.000400809	0.00282794
12.7581	12.6146	0.000104249	0.00406438
12.7585	12.6151	-0.00156621	0.00370973
12.759	12.6155	-0.000372034	0.00298567
12.7595	12.616	0.000104784	0.00224401
12.7599	12.6165	0.000328453	0.00281753
12.7604	12.617	0.000198347	0.00419827
12.7609	12.6174	-0.00142456	0.00369948
12.7614	12.6179	-0.000441055	0.00292914
12.7618	12.6184	9.88454e-05	0.00221582
12.7623	12.6189	0.000222085	0.00289881
12.7628	12.6193	0.000230022	0.00409396
12.7632	12.6198	-0.00141049	0.00385157
12.7637	12.6203	-0.000309147	0.00290906
12.7642	12.6207	0.000212151	0.0022731
12.7647	12.6212	0.00023489	0.00289612
12.7651	12.6217	0.000150531	0.00416311
12.7656	12.6222	-0.00155494	0.00366958
12.7661	12.6226	-0.000529748	0.00278918
12.7666	12.6231	0.000192675	0.00225179
12.767	12.6236	0.000257898	0.00289103
12.7675	12.624	9.4779e-05	0.0042576
12.768	12.6245	-0.00158995	0.00377963
12.7684	12.625	-0.000286408	0.00284195
12.7689	12.6255	0.000184275	0.00222081
12.7694	12.626	0.000165334	0.00300822
12.7699	12.6264	0.000161999	0.00416558
12.7703	12.6269	-0.00150946	0.00365401
12.7708	12.6274	-0.000321418	0.0029679
12.7713	12.6279	0.000305981	0.00234767
12.7717	12.6283	3.18928e-05	0.00298739
12.7722	12.6288	0.00015153	0.00422007
12.7727	12.6293	-0.00150279	0.00368777
12.7732	12.6297	-0.00043772	0.00286112
12.7736	12.6302	0.000373201	0.00221206
12.7741	12.6307	8.58436e-05	0.00293537
12.7746	12.6312	0.000175803	0.00424466
12.7751	12.6316	-0.00148392	0.00359952
12.7755	12.6321	-0.000291741	0.00273936
12.776	12.6326	0.000346323	0.00231686
12.7765	12.633	7.0773e-05	0.00311924
12.7769	12.6335	5.92339e-05	0.00415828
12.7774	12.634	-0.00149458	0.00375692
12.7779	12.6344	-0.000384304	0.00274124
12.7784	12.6349	0.000374734	0.0023262
12.7788	12.6354	-9.25246e-06	0.00302239
12.7793	12.6359	4.97635e-05	0.00433061
12.7798	12.6363	-0.00146878	0.00361197
12.7802	12.6368	-0.000423381	0.00277844
12.7807	12.6373	0.000444291	0.00236914
12.7812	12.6378	7.81746e-05	0.0030364
12.7817	12.6382	-3.65935e-05	0.00426071
12.7821	12.6387	-0.00132667	0.00366523
12.7826	12.6392	-0.000378169	0.00262963
12.7831	12.6396	0.00052198	0.00244173
12.7836	12.6401	-2.63918e-05	0.00316005
12.784	12.6406	-3.25271e-05	0.00432266
12.7845	12.641	-0.00139109	0.00370088
12.785	12.6415	-0.00039991	0.00265389
12.7854	12.642	0.000526581	0.00227793
12.7859	12.6424	-0.000143229	0.00316751
12.7864	12.6429	-3.99286e-05	0.00420483
12.7869	12.6434	-0.00135347	0.00351561
12.7873	12.6438	-0.000412448	0.00265094
12.7878	12.6443	0.000465229	0.00249557
12.7883	12.6448	8.88573e-06	0.00314759
12.7887	12.6453	-5.91368e-05	0.00421212
12.7892	12.6457	-0.00127579	0.00363098
12.7897	12.6462	-0.00057043	0.00252204
12.7902	12.6467	0.000518645	0.00245649
12.7906	12.6472	-0.000127356	0.00327756
12.7911	12.6477	-0.000164702	0.004313
12.7916	12.6481	-0.00132767	0.0037471
12.7921	12.6486	-0.00051161	0.0025885
12.7925	12.6491	0.000598938	0.0025572
12.793	12.6495	-5.24666e-05	0.0032402
12.7935	12.65	-0.000201246	0.00420418
12.7939	12.6505	-0.00108993	0.00363737
12.7944	12.651	-0.000498608	0.00254368
12.7949	12.6514	0.000631683	0.00250631
12.7954	12.6519	-8.13414e-05	0.00326199
12.7958	12.6524	-0.000289208	0.00429217
12.7963	12.6528	-0.00114894	0.00350315
12.7968	12.6533	-0.000438522	0.00249386
12.7972	12.6538	0.000723711	0.00253294
12.7977	12.6543	3.80281e-05	0.00331541
12.7982	12.6547	-0.000337487	0.00422474
12.7987	12.6552	-0.00109173	0.00351077
12.7991	12.6557	-0.000566631	0.00246428
12.7996	12.6562	0.000741582	0.00260112
12.8001	12.6567	-8.67453e-05	0.0032701
12.8006	12.6571	-0.000412448	0.00415361
12.801	12.6576	-0.00100657	0.00352962
12.8015	12.6581	-0.000534082	0.0024006
12.802	12.6585	0.000788863	0.00253622
12.8024	12.659	-0.000123289	0.00334156
12.8029	12.6595	-0.000400908	0.00414599
12.8034	12.6599	-0.000961354	0.00359468
12.8039	12.6604	-0.000511878	0.00229178
12.8043	12.6609	0.000758989	0.00256032
12.8048	12.6614	-7.82738e-05	0.00340416
12.8053	12.6618	-0.000532352	0.00424498
12.8057	12.6623	-0.0010155	0.00348914
12.8062	12.6628	-0.000598306	0.00243207
12.8067	12.6632	0.000960917	0.00251254
12.8072	12.6637	-8.21439e-05	0.00338499
12.8076	12.6642	-0.00053262	0.00435831
12.8081	12.6646	-0.000960819	0.00340727
12.8086	12.6651	-0.000681399	0.0023489
12.8091	12.6656	0.000827011	0.00260161
12.8095	12.6661	1.09545e-05	0.00345832
12.81	12.6665	-0.000593169	0.00425604
12.8105	12.667	-0.000953882	0.00360886
12.8109	12.6675	-0.0005855	0.00228523
12.8114	12.668	0.000837213	0.00264831
12.8119	12.6684	-0.000189243	0.0034085
12.8124	12.6689	-0.000596772	0.00418115
12.8128	12.6694	-0.000939346	0.00341924
12.8133	12.6698	-0.000604441	0.00217223
12.8138	12.6703	0.000895498	0.00269453
12.8142	12.6708	-0.0001545	0.00348447
12.8147	12.6712	-0.000636651	0.00411264
12.8152	12.6717	-0.000890799	0.00333812
12.8157	12.6722	-0.000746354	0.00226065
12.8161	12.6726	0.000853354	0.00255474
12.8166	12.6731	-0.000156766	0.0034689
12.8171	12.6736	-0.000710738	0.00413117
12.8176	12.674	-0.000751954	0.00346407
12.818	12.6745	-0.00071434	0.00213019
12.8185	12.675	0.000915705	0.00263816
12.819	12.6755	-3.32584e-05	0.00352216
12.8194	12.676	-0.000806636	0.0041142
12.8199	12.6764	-0.000856253	0.00341613
12.8204	12.6769	-0.000713876	0.00226859
12.8209	12.6774	0.00105428	0.00259801
12.8213	12.6779	-0.000160101	0.00356731
12.8218	12.6784	-0.000783629	0.00411436
12.8223	12.6788	-0.000742216	0.00331509
12.8227	12.6793	-0.00074482	0.00216911
12.8232	12.6797	0.000941048	0.00273501
12.8237	12.6802	-2.35917e-05	0.00348898
12.8242	12.6807	-0.000758553	0.00401644
12.8246	12.6812	-0.000661656	0.00344538
12.8251	12.6817	-0.000717408	0.00229785
12.8256	12.6821	0.000932577	0.00271027
12.8261	12.6826	-0.000144228	0.00367269
12.8265	12.683	-0.000851919	0.00405939
12.827	12.6835	-0.000616712	0.00338343
12.8275	12.684	-0.000774694	0.0022345
12.8279	12.6845	0.000846148	0.00282483
12.8284	12.6849	-0.000120489	0.00372374
12.8289	12.6854	-0.000898201	0.00405241
12.8294	12.6859	-0.000662458	0.0034208
12.8298	12.6864	-0.000624381	0.00223852
12.8303	12.6869	0.000927975	0.0027895
12.8308	12.6873	7.35192e-06	0.0037049
12.8312	12.6878	-0.000913271	0.00404914
12.8317	12.6883	-0.000575031	0.00329066
12.8322	12.6888	-0.000526948	0.0021769
12.8327	12.6892	0.00083188	0.0028281
12.8331	12.6897	-0.000116887	0.00385796
12.8336	12.6901	-0.000991228	0.00401145
12.8341	12.6906	-0.000587302	0.00334795
12.8346	12.6911	-0.000518548	0.00219026
12.835	12.6916	0.000859953	0.00287964
12.8355	12.692	-0.000112285	0.00361729
12.836	12.6925	-0.00111573	0.00414239
12.8364	12.693	-0.000458729	0.00319521
12.8369	12.6934	-0.000465863	0.00214543
12.8374	12.6939	0.000831809	0.00284662
12.8379	12.6944	-8.4944e-05	0.00381216
12.8383	12.6948	-0.00118196	0.0040879
12.8388	12.6953	-0.000452862	0.00323397
12.8393	12.6958	-0.00040938	0.00223869
12.8397	12.6963	0.000622944	0.00270109
12.8402	12.6967	-0.000110484	0.00387009
12.8407	12.6972	-0.00114721	0.003978
12.8412	12.6977	-0.000492206	0.00330263
12.8416	12.6982	-0.00034109	0.00211462
12.8421	12.6986	0.000641617	0.00279992
12.8426	12.6991	1.24883e-05	0.0039095
12.8431	12.6996	-0.00124331	0.00395449
12.8435	12.7	-0.000426252	0.00315988
12.844	12.7005	-0.000445924	0.00215322
12.8445	12.701	0.000625013	0.00281769
12.8449	12.7015	-0.000129424	0.00382977
12.8454	12.7019	-0.00116815	0.00395556
12.8459	12.7024	-0.000625379	0.0031812
12.8464	12.7028	-0.000378704	0.00220288
12.8468	12.7033	0.000597137	0.00290488
12.8473	12.7038	5.71651e-05	0.00383772
12.8478	12.7043	-0.00134761	0.00393564
12.8482	12.7047	-0.000379703	0.00311613
12.8487	12.7052	-0.000372836	0.00213937
12.8492	12.7057	0.000554992	0.00287981
12.8497	12.7062	-4.5065e-05	0.00390934
12.8501	12.7067	-0.00134301	0.00375209
12.8506	12.7072	-0.000326554	0.00309122
12.8511	12.7076	-0.000255464	0.00212487
12.8516	12.7081	0.000503039	0.00270044
12.852	12.7086	6.46378e-05	0.00402202
12.8525	12.7091	-0.00120036	0.00395416
12.853	12.7095	-0.000466862	0.00295733
12.8534	12.71	-0.000220187	0.00212052
12.8539	12.7105	0.000431218	0.00289816
12.8544	12.7109	5.77001e-05	0.00406659
12.8549	12.7114	-0.00135654	0.00374865
12.8553	12.7119	-0.000417513	0.00310679
12.8558	12.7123	-6.65383e-05	0.00206496
12.8563	12.7128	0.000440688	0.0027741
12.8567	12.7133	8.51123e-05	0.0040493
12.8572	12.7137	-0.00135734	0.00371752
12.8577	12.7142	-0.000378704	0.00298052
12.8582	12.7147	-3.89298e-05	0.00210651
12.8586	12.7152	0.000426884	0.00283825
12.8591	12.7157	7.81746e-05	0.00418754
12.8596	12.7161	-0.00143016	0.00380503
12.8601	12.7166	-0.000422114	0.00308016
12.8605	12.7171	-7.80926e-07	0.00217239
12.861	12.7176	0.000339992	0.0029715
12.8615	12.718	0.00012879	0.00414255
12.8619	12.7185	-0.00151479	0.003841
12.8624	12.719	-0.000385838	0.00302599
12.8629	12.7194	-2.79257e-05	0.00224229
12.8634	12.7199	0.000279638	0.00280974
12.8638	12.7204	8.86437e-05	0.00423424
12.8643	12.7208	-0.00147545	0.00382527
12.8648	12.7213	-0.000368698	0.00312654
12.8652	12.7218	3.82956e-05	0.00205857
12.8657	12.7222	0.000363267	0.00298003
12.8662	12.7227	0.000124456	0.00416885
12.8667	12.7232	-0.00150459	0.00366523
12.8671	12.7236	-0.000471464	0.00296511
12.8676	12.7241	9.93804e-05	0.00218312
12.8681	12.7246	0.000257898	0.00287186
12.8686	12.725	0.000136192	0.0041936
12.869	12.7255	-0.00153166	0.00375676
12.8695	12.726	-0.000329622	0.00293537
12.87	12.7265	0.000143861	0.0022658
12.8704	12.727	0.000172736	0.00301944
12.8709	12.7274	0.000101449	0.00417836
12.8714	12.7279	-0.00143277	0.00371972
12.8719	12.7284	-0.000433386	0.00293832
12.8723	12.7288	0.000139794	0.002201
12.8728	12.7293	0.000296243	0.00298379
12.8733	12.7298	0.000220819	0.00420311
12.8737	12.7302	-0.00145037	0.00357477
12.8742	12.7307	-0.000342891	0.00281146
12.8747	12.7312	0.000339457	0.00230301
12.8752	12.7317	9.73828e-05	0.00303157
12.8756	12.7322	0.000117786	0.00418459
12.8761	12.7326	-0.00148132	0.00364139
12.8766	12.7331	-0.000386105	0.0027814
12.8771	12.7335	0.000277837	0.00232882
12.8775	12.734	0.000106051	0.00296388
12.878	12.7345	0.000221889	0.00423564
12.8785	12.735	-0.00155954	0.00365385
12.8789	12.7355	-0.000404244	0.00289645
12.8794	12.736	0.000386737	0.00235095
12.8799	12.7364	0.000123654	0.00310646
12.8804	12.7369	0.000148997	0.00424498
12.8808	12.7374	-0.00141076	0.00366335
12.8813	12.7379	-0.000339092	0.002721
12.8818	12.7383	0.000360395	0.00225163
12.8822	12.7388	0.000193478	0.0030713
12.8827	12.7393	7.66408e-05	0.00429496
12.8832	12.7397	-0.00137368	0.00376176
12.8837	12.7402	-0.000277205	0.00280459
12.8841	12.7407	0.000330789	0.00230563
12.8846	12.7412	-3.11723e-06	0.00301166
12.8851	12.7416	2.17883e-07	0.0042263
12.8856	12.7421	-0.0013246	0.00367564
12.886	12.7426	-0.000436721	0.00273158
12.8865	12.743	0.000494104	0.00237414
12.887	12.7435	1.62873e-05	0.00316906
12.8874	12.744	7.87096e-05	0.00426645
12.8879	12.7444	-0.00135888	0.00341489
12.8884	12.7449	-0.000400445	0.00257014
12.8889	12.7454	0.000504644	0.00246755
12.8893	12.7459	-6.18485e-06	0.00315178
12.8898	12.7464	-5.88693e-05	0.00428841
12.8903	12.7468	-0.0012065	0.00365213
12.8907	12.7473	-0.000424183	0.00260595
12.8912	12.7478	0.000500774	0.00240093
12.8917	12.7483	2.47588e-05	0.00323429
12.8922	12.7487	-9.23456e-05	0.0043043
12.8926	12.7492	-0.00137982	0.00365277
12.8931	12.7496	-0.000383769	0.00262807
12.8936	12.7501	0.00055139	0.0024392
12.8941	12.7506	-2.9727e-05	0.0033232
12.8945	12.7511	-8.4409e-05	0.00420778
12.895	12.7515	-0.00113928	0.00372128
12.8955	12.752	-0.000377366	0.00260767
12.8959	12.7525	0.000492838	0.00247174
12.8964	12.7529	-7.06048e-05	0.00325297
12.8969	12.7534	-0.00013449	0.00435987
12.8974	12.7538	-0.00112827	0.00366351
12.8978	12.7543	-0.000493204	0.00259038
12.8983	12.7548	0.000685366	0.00239749
12.8988	12.7553	1.26847e-05	0.00327198
