# 1304     AichiSR QXAFS
# Start     : 8.9544
# End       : 9.0544
# Dir       : Backward
# Points    : 300
# ScanTime  : 1.01549
# Date      : 13.04.23 23:03
# Ring Cur. : 0.9[mA]
12.7557	12.6122	0.0010108	0.00267741
12.7562	12.6126	-4.35312e-05	0.00355018
12.7566	12.6131	-0.0005799	0.00418475
12.7571	12.6136	-0.000730481	0.00332942
12.7576	12.614	-0.000599037	0.00220524
12.7581	12.6145	0.000952784	0.00268831
12.7585	12.615	-0.000110216	0.0034135
12.759	12.6155	-0.000795365	0.00421368
12.7595	12.6159	-0.00063765	0.00343857
12.7599	12.6164	-0.000555092	0.00226269
12.7604	12.6169	0.000982194	0.00258276
12.7609	12.6174	-4.78652e-05	0.00361165
12.7614	12.6179	-0.000751687	0.00422614
12.7618	12.6183	-0.00060824	0.00339433
12.7623	12.6188	-0.000662993	0.002166
12.7628	12.6193	0.000945846	0.0026838
12.7632	12.6197	-0.000165237	0.00354486
12.7637	12.6202	-0.000711005	0.00419827
12.7642	12.6207	-0.000586499	0.0033845
12.7647	12.6212	-0.000717408	0.00225737
12.7651	12.6216	0.00113964	0.00267397
12.7656	12.6221	-8.62104e-05	0.00353987
12.7661	12.6226	-0.000839381	0.00414738
12.7666	12.623	-0.000627983	0.00332738
12.767	12.6235	-0.000673997	0.00216428
12.7675	12.624	0.00092464	0.00264283
12.768	12.6244	-0.000106417	0.00359763
12.7684	12.6249	-0.000871591	0.00403684
12.7689	12.6254	-0.000522347	0.00334655
12.7694	12.6259	-0.000651454	0.00205423
12.7699	12.6264	0.000937446	0.00268659
12.7703	12.6268	7.35192e-06	0.00366179
12.7708	12.6273	-0.000942414	0.00410379
12.7713	12.6278	-0.000474799	0.00324175
12.7717	12.6283	-0.000593704	0.00211602
12.7722	12.6287	0.000920039	0.00272288
12.7727	12.6292	-0.000130691	0.00357649
12.7732	12.6297	-0.000874659	0.00413305
12.7736	12.6301	-0.000438255	0.0032606
12.7741	12.6306	-0.000552755	0.00212257
12.7746	12.6311	0.00084515	0.00275976
12.7751	12.6316	-0.00010615	0.00363532
12.7755	12.632	-0.000845516	0.00395588
12.776	12.6325	-0.000501408	0.00337458
12.7765	12.633	-0.000603906	0.00219263
12.7769	12.6334	0.000932844	0.00270232
12.7774	12.6339	-0.000157301	0.00367548
12.7779	12.6344	-0.00101197	0.00402546
12.7784	12.6348	-0.000433653	0.00327772
12.7788	12.6353	-0.000545158	0.00207275
12.7793	12.6358	0.000989328	0.00276197
12.7798	12.6363	1.47535e-05	0.00372858
12.7802	12.6367	-0.00109886	0.003959
12.7807	12.6372	-0.00053715	0.00328878
12.7812	12.6377	-0.000472266	0.00210716
12.7817	12.6382	0.000778928	0.00260923
12.7821	12.6386	4.48946e-05	0.0037784
12.7826	12.6391	-0.000994563	0.0040661
12.7831	12.6396	-0.000447458	0.00318742
12.7836	12.64	-0.000530551	0.00217174
12.784	12.6405	0.000778661	0.00280835
12.7845	12.641	4.13632e-05	0.00374415
12.785	12.6414	-0.00117735	0.00403979
12.7854	12.6419	-0.000441055	0.00318496
12.7859	12.6424	-0.000375369	0.0020707
12.7864	12.6428	0.000811138	0.00273952
12.7869	12.6433	-4.17299e-05	0.00385796
12.7873	12.6438	-0.00113467	0.0040275
12.7878	12.6442	-0.000459728	0.00319955
12.7883	12.6447	-0.000401443	0.00219402
12.7887	12.6452	0.000711441	0.00280089
12.7892	12.6457	2.70239e-05	0.00384894
12.7897	12.6461	-0.0011068	0.0039576
12.7902	12.6466	-0.000511075	0.00317202
12.7906	12.6471	-0.000277936	0.00212536
12.7911	12.6476	0.000620411	0.00271961
12.7916	12.6481	6.62061e-06	0.00391213
12.7921	12.6485	-0.00105005	0.00398407
12.7925	12.649	-0.00039711	0.00316767
12.793	12.6495	-0.000276938	0.00221721
12.7935	12.6499	0.0005864	0.0028127
12.7939	12.6504	8.96425e-05	0.0038746
12.7944	12.6509	-0.00135761	0.00388148
12.7949	12.6514	-0.000478401	0.00313481
12.7954	12.6519	-0.00023779	0.0021442
12.7958	12.6523	0.00071911	0.00281442
12.7963	12.6528	0.000162802	0.003895
12.7968	12.6532	-0.00120216	0.00385657
12.7972	12.6537	-0.000329818	0.00316751
12.7977	12.6542	-0.000258799	0.00205234
12.7982	12.6547	0.000620946	0.0028608
12.7987	12.6551	0.000141328	0.00387025
12.7991	12.6556	-0.00121697	0.00389951
12.7996	12.6561	-0.000390439	0.00306271
12.8001	12.6566	-0.000193577	0.00206496
12.8006	12.6571	0.000610477	0.0028331
12.801	12.6575	0.000110385	0.00396195
12.8015	12.658	-0.00118069	0.00381888
12.802	12.6585	-0.000359763	0.0030473
12.8024	12.659	-0.000133027	0.00217862
12.8029	12.6594	0.000578998	0.00288464
12.8034	12.6599	5.58988e-05	0.0039663
12.8039	12.6603	-0.00120343	0.00381109
12.8043	12.6608	-0.000439254	0.00304951
12.8048	12.6613	-0.000104884	0.00215478
12.8053	12.6618	0.000508176	0.00287342
12.8057	12.6622	0.00015433	0.00402546
12.8062	12.6627	-0.00135781	0.00372922
12.8067	12.6632	-0.000255999	0.00310802
12.8072	12.6636	-2.30567e-05	0.00213347
12.8076	12.6641	0.000474967	0.00294036
12.8081	12.6646	0.000114718	0.00412854
12.8086	12.665	-0.00138829	0.0037398
12.8091	12.6655	-0.000361297	0.00299502
12.8095	12.666	-0.000102547	0.0021179
12.81	12.6665	0.000517379	0.0030042
12.8105	12.667	0.000197009	0.00413321
12.8109	12.6674	-0.00132153	0.00376299
12.8114	12.6679	-0.00034109	0.00309589
12.8119	12.6684	8.3311e-05	0.00222532
12.8124	12.6688	0.00034866	0.00279976
12.8128	12.6693	0.000167938	0.00418926
12.8133	12.6698	-0.00146805	0.00381453
12.8138	12.6702	-0.000303815	0.00296651
12.8142	12.6707	-6.65383e-05	0.00224352
12.8147	12.6712	0.000474432	0.00296151
12.8152	12.6717	0.000231555	0.00413321
12.8157	12.6721	-0.00139876	0.00381995
12.8161	12.6726	-0.000351827	0.00300371
12.8166	12.673	0.000204482	0.00214511
12.8171	12.6735	0.000336389	0.0029343
12.8176	12.674	0.000137458	0.00416279
12.818	12.6745	-0.00141229	0.00379397
12.8185	12.6749	-0.000261867	0.00301493
12.819	12.6754	0.000148462	0.00222188
12.8194	12.6759	0.000282439	0.00287964
12.8199	12.6764	0.000229023	0.00421819
12.8204	12.6769	-0.00149619	0.00377233
12.8209	12.6773	-0.000282805	0.00295282
12.8213	12.6778	0.000109653	0.00211897
12.8218	12.6783	0.000315647	0.00280991
12.8223	12.6788	0.000174804	0.00411576
12.8227	12.6792	-0.00146245	0.00374791
12.8232	12.6797	-0.000273602	0.00274452
12.8237	12.6802	7.5107e-05	0.00208488
12.8242	12.6806	0.000339189	0.00286128
12.8246	12.6811	1.42185e-05	0.00414862
12.8251	12.6816	-0.00152093	0.0037194
12.8256	12.6821	-0.00032115	0.00275869
12.8261	12.6825	0.000142862	0.00212552
12.8265	12.683	0.000191944	0.00291857
12.827	12.6835	0.000156399	0.00407217
12.8275	12.6839	-0.00136394	0.00374898
12.8279	12.6844	-0.000274137	0.00269765
12.8284	12.6849	0.000327454	0.00222639
12.8289	12.6854	0.000304179	0.00298863
12.8294	12.6858	0.00019708	0.00419983
12.8298	12.6863	-0.00150026	0.00362271
12.8303	12.6868	-0.000344425	0.00281253
12.8308	12.6873	0.00025203	0.00220894
12.8312	12.6878	0.000230824	0.00291824
12.8317	12.6882	0.000231288	0.00415157
12.8322	12.6887	-0.00143683	0.00366335
12.8327	12.6892	-0.00043212	0.00268986
12.8331	12.6896	0.000320052	0.00228384
12.8336	12.6901	0.000200879	0.00299829
12.8341	12.6906	0.000196545	0.00411871
12.8346	12.691	-0.00143097	0.00370211
12.835	12.6915	-0.000258532	0.00264955
12.8355	12.692	0.000361198	0.00223402
12.836	12.6924	0.000177141	0.00310507
12.8364	12.6929	0.000237691	0.00424933
12.8369	12.6934	-0.00141563	0.00359345
12.8374	12.6938	-0.000317352	0.00261546
12.8379	12.6943	0.000452959	0.00242068
12.8383	12.6948	9.43152e-05	0.00292946
12.8388	12.6953	0.000111116	0.00426957
12.8393	12.6957	-0.00141023	0.0036568
12.8397	12.6962	-0.00039991	0.00266249
12.8402	12.6967	0.000504841	0.00226548
12.8407	12.6972	5.85026e-05	0.00302739
12.8412	12.6976	7.5642e-05	0.00417164
12.8416	12.6981	-0.00136294	0.00368171
12.8421	12.6986	-0.000391438	0.00265159
12.8426	12.699	0.00046703	0.00228384
12.8431	12.6995	6.05002e-05	0.00317448
12.8435	12.7	4.59646e-05	0.00417713
12.844	12.7004	-0.00129446	0.0036808
12.8445	12.7009	-0.000321953	0.00268085
12.8449	12.7014	0.000496173	0.0023802
12.8454	12.7019	0.00010985	0.00317357
12.8459	12.7023	0.000105783	0.00407904
12.8464	12.7028	-0.00125891	0.00354084
12.8468	12.7033	-0.000430318	0.0026438
12.8473	12.7037	0.000599473	0.00222951
12.8478	12.7042	3.2855e-06	0.00314244
12.8482	12.7047	8.2776e-05	0.00423892
12.8487	12.7052	-0.00128265	0.00352806
12.8492	12.7057	-0.000315283	0.0026947
12.8497	12.7061	0.000626814	0.00235717
12.8501	12.7066	-1.58342e-06	0.00310335
12.8506	12.7071	-6.14019e-05	0.00422302
12.8511	12.7076	-0.00133767	0.00360231
12.8516	12.7081	-0.000398376	0.00262587
12.852	12.7085	0.000561592	0.00244076
12.8525	12.709	5.67013e-05	0.003222
12.853	12.7095	-0.000106417	0.00412338
12.8534	12.7099	-0.00117582	0.00360467
12.8539	12.7104	-0.000468931	0.00250631
12.8544	12.7109	0.0006953	0.00254851
12.8549	12.7114	6.66354e-05	0.00313465
12.8553	12.7118	-0.000106685	0.00416902
12.8558	12.7123	-0.00114568	0.00356886
12.8563	12.7127	-0.000558159	0.00261358
12.8567	12.7132	0.000644952	0.00247066
12.8572	12.7137	-6.44695e-05	0.00328755
12.8577	12.7142	-0.000142961	0.00426227
12.8582	12.7146	-0.000907867	0.00361197
12.8586	12.7151	-0.000428249	0.00248779
12.8591	12.7156	0.000696834	0.0024006
12.8596	12.7161	-5.40004e-05	0.00321717
12.8601	12.7165	-0.000361832	0.00413197
12.8605	12.717	-0.000993297	0.00365368
12.861	12.7175	-0.000540485	0.00251565
12.8615	12.718	0.00065189	0.00242568
12.8619	12.7184	-6.50045e-05	0.00316874
12.8624	12.7189	-0.000230923	0.00418786
12.8629	12.7194	-0.000997898	0.00352757
12.8634	12.7198	-0.00044999	0.00241601
12.8638	12.7203	0.000723711	0.00249836
12.8643	12.7208	1.22208e-05	0.00320594
12.8648	12.7212	-0.000284339	0.00419811
12.8652	12.7217	-0.00104031	0.00349569
12.8657	12.7222	-0.000522614	0.00246337
12.8662	12.7226	0.000780462	0.00245649
12.8667	12.7231	4.72309e-05	0.00323241
12.8671	12.7236	-0.000326554	0.00430398
12.8676	12.724	-0.000972359	0.00359919
12.8681	12.7245	-0.000527483	0.00234595
12.8686	12.725	0.000839282	0.00248779
12.869	12.7255	-0.000157301	0.00324487
12.8695	12.7259	-0.000333688	0.00427177
12.87	12.7264	-0.000910935	0.00350766
12.8704	12.7269	-0.000501872	0.00240978
12.8709	12.7274	0.000944847	0.00254228
12.8714	12.7278	-0.00010615	0.00322758
12.8719	12.7283	-0.000358764	0.00422614
12.8723	12.7288	-0.00105979	0.00345693
12.8728	12.7292	-0.000574764	0.00235202
12.8733	12.7297	0.00103174	0.00253729
12.8737	12.7302	-8.28752e-05	0.00342391
12.8742	12.7307	-0.000242195	0.00421884
12.8747	12.7311	-0.000854987	0.0035061
12.8752	12.7316	-0.000483734	0.00231718
12.8756	12.7321	0.000987794	0.00255597
12.8761	12.7326	-4.32637e-05	0.0033663
12.8766	12.733	-0.000470197	0.00418222
12.8771	12.7335	-0.000794098	0.00342375
12.8775	12.734	-0.000578634	0.00234832
12.878	12.7344	0.000966053	0.00264767
12.8785	12.7349	-0.000109485	0.00340228
12.8789	12.7354	-0.000468931	0.00419672
12.8794	12.7359	-0.000845516	0.00360435
12.8799	12.7364	-0.000599305	0.00230859
12.8804	12.7368	0.000988061	0.0025921
12.8808	12.7373	3.62268e-05	0.003458
12.8813	12.7378	-0.000513144	0.0041732
12.8818	12.7383	-0.000955951	0.00343202
12.8822	12.7387	-0.000633316	0.00228711
12.8827	12.7392	0.000977325	0.00255565
12.8832	12.7397	-0.000151433	0.00345193
12.8837	12.7401	-0.000709739	0.00415656
12.8841	12.7406	-0.000778493	0.00351061
12.8846	12.7411	-0.000544088	0.00226564
12.8851	12.7416	0.00108523	0.00264283
12.8856	12.742	-4.04636e-05	0.00356092
12.886	12.7425	-0.000561227	0.00409461
12.8865	12.743	-0.000757554	0.00349225
12.887	12.7434	-0.000712806	0.00227621
12.8874	12.7439	0.00107395	0.00270044
12.8879	12.7444	-0.000106417	0.00353896
12.8884	12.7449	-0.000658392	0.00416665
12.8889	12.7453	-0.000710006	0.00349848
12.8893	12.7458	-0.000621045	0.002225
12.8898	12.7463	0.00106402	0.00266979
12.8903	12.7468	2.78264e-05	0.00350004
12.8907	12.7472	-0.000607509	0.00410878
12.8912	12.7477	-0.000605707	0.00346922
12.8917	12.7482	-0.000666792	0.00226548
12.8922	12.7487	0.000997799	0.00261186
12.8926	12.7491	-0.000139359	0.00359656
12.8931	12.7496	-0.000731016	0.00418893
12.8936	12.75	-0.000730945	0.00332754
12.8941	12.7505	-0.000578634	0.00221566
12.8945	12.751	0.000996265	0.00268986
12.895	12.7515	-8.72092e-05	0.00347341
12.8955	12.7519	-0.000685733	0.00404635
12.8959	12.7524	-0.000732282	0.00345988
12.8964	12.7529	-0.000627448	0.00206603
12.8969	12.7533	0.00101467	0.00266807
12.8974	12.7538	6.00364e-05	0.00357772
12.8978	12.7543	-0.000871056	0.00422646
12.8983	12.7547	-0.000634582	0.00341317
12.8988	12.7552	-0.000648119	0.00213658
