# 1304     AichiSR QXAFS
# Start     : 8.9544
# End       : 9.0544
# Dir       : Backward
# Points    : 300
# ScanTime  : 1.01549
# Date      : 13.04.23 23:31
# Ring Cur. : 1[mA]
12.7557	12.6123	-0.000590102	0.004273
12.7562	12.6128	-0.000765491	0.00351716
12.7566	12.6132	-0.00057323	0.00227589
12.7571	12.6137	0.00101207	0.00260874
12.7576	12.6142	-7.75425e-05	0.00357649
12.7581	12.6147	-0.000553023	0.0042372
12.7585	12.6151	-0.000783897	0.00351609
12.759	12.6156	-0.000554289	0.00228523
12.7595	12.6161	0.00100367	0.00269732
12.7599	12.6166	-5.7603e-05	0.00348726
12.7604	12.617	-0.000697468	0.00419795
12.7609	12.6175	-0.000724613	0.00343588
12.7614	12.618	-0.000723347	0.00222623
12.7618	12.6185	0.000933575	0.00269625
12.7623	12.6189	-0.000135025	0.00347947
12.7628	12.6194	-0.000746818	0.0041455
12.7632	12.6199	-0.000661656	0.00358083
12.7637	12.6203	-0.000733281	0.00208799
12.7642	12.6208	0.000897299	0.00274419
12.7647	12.6213	-6.98023e-05	0.00355141
12.7651	12.6218	-0.000838382	0.00419548
12.7656	12.6222	-0.000671661	0.00348168
12.7661	12.6227	-0.000589567	0.00228228
12.7666	12.6232	0.000976058	0.00266823
12.767	12.6236	-1.31593e-06	0.00366023
12.7675	12.6241	-0.000846783	0.00410363
12.768	12.6246	-0.000544623	0.00338933
12.7684	12.6251	-0.000637115	0.00222205
12.7689	12.6255	0.00099853	0.00273657
12.7694	12.626	3.67618e-05	0.00364155
12.7699	12.6265	-0.000947283	0.00406938
12.7703	12.627	-0.000575031	0.0033976
12.7708	12.6275	-0.000556091	0.0022695
12.7713	12.6279	0.00092464	0.00275198
12.7717	12.6284	-1.23201e-05	0.00368965
12.7722	12.6289	-0.000938811	0.00415951
12.7727	12.6293	-0.000642519	0.00329813
12.7732	12.6298	-0.000597771	0.0022141
12.7736	12.6303	0.000942047	0.00285645
12.7741	12.6307	-2.02566e-05	0.00377684
12.7746	12.6312	-0.00103444	0.00409691
12.7751	12.6317	-0.0005883	0.00326978
12.7755	12.6322	-0.000507811	0.00215182
12.776	12.6326	0.000792001	0.00284818
12.7765	12.6331	-4.11949e-05	0.00382076
12.7769	12.6335	-0.00105131	0.00406406
12.7774	12.634	-0.000505011	0.00325453
12.7779	12.6345	-0.000420117	0.00206415
12.7784	12.635	0.000796068	0.00278156
12.7788	12.6355	-1.05188e-05	0.00381249
12.7793	12.6359	-0.00111934	0.00403373
12.7798	12.6364	-0.000383769	0.00328814
12.7802	12.6369	-0.000438255	0.00223869
12.7807	12.6374	0.000684831	0.00287186
12.7812	12.6378	-1.13213e-05	0.00383756
12.7817	12.6383	-0.00118295	0.00416558
12.7821	12.6388	-0.000391706	0.00319832
12.7826	12.6392	-0.00030608	0.00211167
12.7831	12.6397	0.000642883	0.00297241
12.7836	12.6401	6.92392e-05	0.00390762
12.784	12.6406	-0.00120803	0.00406594
12.7845	12.6411	-0.000408577	0.00316251
12.785	12.6416	-0.000248794	0.00220583
12.7854	12.642	0.000584866	0.00286563
12.7859	12.6425	-3.38473e-06	0.00392925
12.7864	12.643	-0.0012111	0.00391245
12.7869	12.6434	-0.000373567	0.00306427
12.7873	12.6439	-0.000178239	0.00209749
12.7878	12.6444	0.000516647	0.00293134
12.7883	12.6448	9.73116e-05	0.00411157
12.7887	12.6453	-0.0013394	0.00389935
12.7892	12.6458	-0.000402977	0.00309326
12.7897	12.6463	-0.00012122	0.00224384
12.7902	12.6468	0.00052478	0.00287981
12.7906	12.6472	9.4779e-05	0.0040661
12.7911	12.6477	-0.00140282	0.00395293
12.7916	12.6482	-0.00038944	0.00309245
12.7921	12.6487	-2.12554e-05	0.00223278
12.7925	12.6491	0.000471364	0.00299313
12.793	12.6496	6.00364e-05	0.00414223
12.7935	12.6501	-0.00146751	0.00394015
12.7939	12.6506	-0.000261332	0.00292152
12.7944	12.651	-3.96611e-05	0.0022345
12.7949	12.6515	0.00040921	0.00287825
12.7954	12.652	0.000139794	0.00412649
12.7958	12.6524	-0.00138542	0.00383912
12.7963	12.6529	-0.000237594	0.00299673
12.7968	12.6534	-2.84973e-06	0.00214264
12.7972	12.6539	0.000326384	0.00297945
12.7977	12.6543	0.000240491	0.00420606
12.7982	12.6548	-0.00141789	0.00381404
12.7987	12.6553	-0.000374102	0.00306975
12.7991	12.6558	5.82351e-05	0.00232104
12.7996	12.6562	0.000411011	0.00287218
12.8001	12.6567	0.000136727	0.00432283
12.8006	12.6572	-0.00141923	0.00375676
12.801	12.6577	-0.00023606	0.00294643
12.8015	12.6582	0.000191944	0.00237119
12.802	12.6586	0.00042255	0.00297708
12.8024	12.6591	0.000248695	0.00427112
12.8029	12.6595	-0.00151353	0.00377668
12.8034	12.66	-0.000256463	0.00297322
12.8039	12.6605	0.000255829	0.00223745
12.8043	12.661	0.000201414	0.00305353
12.8048	12.6614	0.000203947	0.00427145
12.8053	12.6619	-0.00142943	0.00375988
12.8057	12.6624	-0.000333688	0.00283573
12.8062	12.6628	0.000280905	0.00226081
12.8067	12.6633	0.00010045	0.00314587
12.8072	12.6638	0.000144663	0.00415361
12.8076	12.6642	-0.00146805	0.00365868
12.8081	12.6647	-0.000411913	0.00280459
12.8086	12.6652	0.000434553	0.00227015
12.8091	12.6657	8.15442e-06	0.00311441
12.8095	12.6661	7.66408e-05	0.00424235
12.81	12.6666	-0.00135428	0.00367892
12.8105	12.6671	-0.000356696	0.00280491
12.8109	12.6676	0.000513045	0.00212815
12.8114	12.668	1.78211e-05	0.00307066
12.8119	12.6685	8.61111e-05	0.0042948
12.8124	12.669	-0.00133714	0.00363221
12.8128	12.6694	-0.000400641	0.00270667
12.8133	12.6699	0.00042255	0.00232136
12.8138	12.6704	0.000127988	0.00305058
12.8142	12.6708	7.30382e-05	0.00419409
12.8147	12.6713	-0.00138749	0.00370522
12.8152	12.6718	-0.000332155	0.00271977
12.8157	12.6722	0.000548857	0.00238471
12.8161	12.6727	4.72309e-05	0.00319832
12.8166	12.6732	7.99759e-05	0.0042526
12.8171	12.6736	-0.001307	0.00370727
12.8176	12.6741	-0.000374102	0.0026983
12.818	12.6746	0.000669761	0.00237135
12.8185	12.6751	1.93549e-05	0.0032497
12.819	12.6756	-0.000143229	0.00422163
12.8194	12.676	-0.00125558	0.00370088
12.8199	12.6765	-0.000453593	0.00261186
12.8204	12.677	0.000600472	0.0025499
12.8209	12.6775	-2.66593e-05	0.00317824
12.8213	12.678	-0.000177508	0.00424203
12.8218	12.6784	-0.00111474	0.0035964
12.8223	12.6789	-0.000520545	0.00253868
12.8227	12.6793	0.00081294	0.00252049
12.8232	12.6798	-4.22649e-05	0.00336786
12.8237	12.6803	-0.000115085	0.00422893
12.8242	12.6808	-0.00116788	0.00370834
12.8246	12.6813	-0.000563028	0.00245026
12.8251	12.6817	0.000758454	0.00260611
12.8256	12.6822	-4.57963e-05	0.00338998
12.8261	12.6827	-0.000163168	0.00433716
12.8265	12.6831	-0.00113901	0.00371612
12.827	12.6836	-0.00053822	0.00247984
12.8275	12.6841	0.000828742	0.00256096
12.8279	12.6845	5.57025e-05	0.00328068
12.8284	12.685	-0.000385303	0.00433668
12.8289	12.6855	-0.000972287	0.00363237
12.8294	12.686	-0.000561494	0.00249697
12.8298	12.6865	0.00082134	0.00248623
12.8303	12.6869	-0.000173102	0.0034158
12.8308	12.6874	-0.000440324	0.00437576
12.8312	12.6879	-0.000829108	0.00348619
12.8317	12.6884	-0.000556893	0.00247673
12.8322	12.6888	0.00100133	0.00263586
12.8327	12.6893	-0.000129692	0.00346235
12.8331	12.6898	-0.000426983	0.00435332
12.8336	12.6902	-0.000889729	0.00363253
12.8341	12.6907	-0.000517745	0.00246567
12.8346	12.6912	0.000972456	0.00264938
12.835	12.6916	-5.60692e-05	0.00354395
12.8355	12.6921	-0.000570965	0.00430366
12.836	12.6926	-0.000784164	0.00351888
12.8364	12.693	-0.00060264	0.00233554
12.8369	12.6935	0.00102461	0.00267118
12.8374	12.694	-6.98735e-06	0.00343932
12.8379	12.6944	-0.000551222	0.00409117
12.8383	12.6949	-0.000862121	0.00350954
12.8388	12.6954	-0.000593169	0.00230145
12.8393	12.6959	0.000968389	0.002726
12.8397	12.6963	-0.000104616	0.00350659
12.8402	12.6968	-0.000757554	0.0042154
12.8407	12.6973	-0.00077703	0.00362459
12.8412	12.6978	-0.000692403	0.00234193
12.8416	12.6982	0.00115091	0.00272412
12.8421	12.6987	-0.000117689	0.00355716
12.8426	12.6992	-0.000699805	0.00426989
12.8431	12.6996	-0.000672196	0.00340507
12.8435	12.7001	-0.000643054	0.00218436
12.844	12.7006	0.000990059	0.00277656
12.8445	12.701	-0.000109949	0.00359345
12.8449	12.7015	-0.000849583	0.00417213
12.8454	12.702	-0.000743483	0.0034485
12.8459	12.7025	-0.000672927	0.0023008
12.8464	12.7029	0.000975523	0.0027741
12.8468	12.7034	-0.00013943	0.00354207
12.8473	12.7039	-0.000851384	0.00412821
12.8478	12.7043	-0.00054769	0.00334746
12.8482	12.7048	-0.000639451	0.00217829
12.8487	12.7053	0.000931507	0.00280147
12.8492	12.7058	-0.000163168	0.0037362
12.8497	12.7063	-0.000912005	0.00422179
12.8501	12.7067	-0.000598038	0.00337753
12.8506	12.7072	-0.000586767	0.00222827
12.8511	12.7077	0.0010016	0.00283482
12.8516	12.7082	-0.000221185	0.00377389
12.852	12.7087	-0.00105438	0.0041083
12.8525	12.7091	-0.00061878	0.00336647
12.853	12.7096	-0.000568093	0.00222467
12.8534	12.71	0.000966588	0.00286096
12.8539	12.7105	-0.000104884	0.00372997
12.8544	12.711	-0.00110987	0.00411297
12.8549	12.7115	-0.000448991	0.00318742
12.8553	12.7119	-0.000502675	0.00209733
12.8558	12.7124	0.000758721	0.00297757
12.8563	12.7129	-5.24666e-05	0.00390139
12.8567	12.7133	-0.00102037	0.00420483
12.8572	12.7138	-0.000527216	0.00326699
12.8577	12.7143	-0.000544623	0.00227605
12.8582	12.7148	0.00083361	0.00283916
12.8586	12.7152	-8.71746e-06	0.00391401
12.8591	12.7157	-0.00107992	0.00406299
12.8596	12.7162	-0.000380969	0.00321094
12.8601	12.7167	-0.000277473	0.00219853
12.8605	12.7171	0.000740316	0.00296871
12.861	12.7176	-7.18711e-05	0.00387616
12.8615	12.7181	-0.00103524	0.00402718
12.8619	12.7186	-0.000429516	0.00326339
12.8624	12.719	-0.000327286	0.00220771
12.8629	12.7195	0.00062528	0.00283015
12.8634	12.7199	-5.27341e-05	0.00395384
12.8638	12.7204	-0.00124124	0.0040275
12.8643	12.7209	-0.00044719	0.00314211
12.8648	12.7214	-0.000322417	0.00226548
12.8652	12.7218	0.000527384	0.00293864
12.8657	12.7223	7.66408e-05	0.00397784
12.8662	12.7228	-0.00128012	0.00400957
12.8667	12.7232	-0.000404511	0.00312982
12.8671	12.7237	-0.000160564	0.00225007
12.8676	12.7242	0.000527116	0.00298551
12.8681	12.7246	6.59041e-05	0.0041047
12.8686	12.7251	-0.00141789	0.0039867
12.869	12.7256	-0.000407579	0.00299142
12.8695	12.7261	-0.000205116	0.00219075
12.87	12.7266	0.000514578	0.00282311
12.8704	12.727	3.49605e-05	0.00411404
12.8709	12.7275	-0.00148538	0.00384411
12.8714	12.728	-0.000415515	0.00313416
12.8719	12.7284	-2.4858e-05	0.00225442
12.8723	12.7289	0.000475431	0.00295282
12.8728	12.7294	0.000174804	0.00417599
12.8733	12.7298	-0.0014131	0.00392212
12.8737	12.7303	-0.000309147	0.00306942
12.8742	12.7308	2.3225e-05	0.00214093
12.8747	12.7313	0.000580532	0.00293413
12.8752	12.7318	0.000134658	0.00416435
12.8756	12.7322	-0.00147671	0.00381781
12.8761	12.7327	-0.000246993	0.00303968
12.8766	12.7332	-6.70733e-05	0.00227375
12.8771	12.7336	0.000429952	0.00309605
12.8775	12.7341	0.000155596	0.00422007
12.878	12.7346	-0.00146544	0.00378323
12.8785	12.7351	-0.000392972	0.00292667
12.8789	12.7355	0.000192479	0.00218452
12.8794	12.736	0.000397742	0.00302518
12.8799	12.7365	0.000276036	0.0041877
12.8804	12.737	-0.00157468	0.00379773
12.8808	12.7375	-0.000338022	0.00300608
12.8813	12.7379	0.000224956	0.00221566
12.8818	12.7384	0.000251762	0.00306427
12.8822	12.7389	0.000238957	0.00424981
12.8827	12.7393	-0.00146344	0.00382806
12.8832	12.7398	-0.000229853	0.00295609
12.8837	12.7403	0.000233357	0.00226655
12.8841	12.7407	0.00028037	0.00301198
12.8846	12.7412	0.00021982	0.00424063
12.8851	12.7417	-0.00153373	0.00372423
12.8856	12.7422	-0.000373567	0.00278967
12.886	12.7426	0.00029931	0.00230112
12.8865	12.7431	9.5314e-05	0.00307565
12.887	12.7436	0.000177141	0.00438773
12.8874	12.744	-0.00145884	0.0038469
12.8879	12.7445	-0.000263401	0.00283466
12.8884	12.745	0.000282706	0.00236963
12.8889	12.7455	0.000146465	0.00310179
12.8893	12.7459	0.000169936	0.00423113
12.8898	12.7464	-0.00148258	0.00364483
12.8903	12.7469	-0.000342356	0.00284679
12.8907	12.7474	0.000388271	0.00241601
12.8912	12.7479	5.67013e-05	0.00298551
12.8917	12.7483	6.43703e-05	0.00428423
12.8922	12.7488	-0.00141383	0.00368842
12.8926	12.7492	-0.000413981	0.00276132
12.8931	12.7497	0.000533252	0.00236463
12.8936	12.7502	9.17113e-05	0.00320439
12.8941	12.7506	-7.18711e-05	0.0043574
12.8945	12.7511	-0.00129672	0.003576
12.895	12.7516	-0.000424183	0.00253852
12.8955	12.7521	0.000526046	0.00243314
12.8959	12.7525	0.000120854	0.00313932
12.8964	12.753	1.22208e-05	0.00429464
12.8969	12.7534	-0.0013412	0.00374431
12.8974	12.7539	-0.000366897	0.00246428
12.8978	12.7544	0.000545522	0.00242847
12.8983	12.7549	5.4365e-05	0.00310851
12.8988	12.7553	-6.29357e-05	0.00425432
