# 1304     AichiSR QXAFS
# Start     : 8.9544
# End       : 9.0544
# Dir       : Backward
# Points    : 300
# ScanTime  : 1.01549
# Date      : 13.04.23 23:18
# Ring Cur. : 1[mA]
12.7557	12.6123	-0.000225519	0.00226671
12.7562	12.6127	0.000553655	0.00292914
12.7566	12.6132	-1.35864e-05	0.0039699
12.7571	12.6137	-0.00126325	0.00405176
12.7576	12.6141	-0.000404511	0.00322151
12.7581	12.6146	-0.00017724	0.00214404
12.7585	12.6151	0.000612742	0.00281704
12.759	12.6156	0.000168402	0.00413305
12.7595	12.616	-0.0014427	0.00406889
12.7599	12.6165	-0.000354359	0.00313669
12.7604	12.617	-0.000142694	0.00222779
12.7609	12.6175	0.000542187	0.00293832
12.7614	12.6179	3.90269e-05	0.00405585
12.7618	12.6184	-0.00139722	0.0039095
12.7623	12.6189	-0.000346494	0.0031798
12.7628	12.6193	-0.00014503	0.00221271
12.7632	12.6198	0.00054472	0.00301772
12.7637	12.6203	7.87096e-05	0.0041396
12.7642	12.6208	-0.00143683	0.00379273
12.7647	12.6212	-0.000352897	0.00301697
12.7651	12.6217	-7.06048e-05	0.00226392
12.7656	12.6222	0.000491571	0.00291701
12.7661	12.6226	9.0445e-05	0.00420933
12.7666	12.6231	-0.00136195	0.00388131
12.767	12.6236	-0.000345691	0.00305681
12.7675	12.6241	-4.75977e-05	0.00219214
12.768	12.6245	0.000369331	0.00303329
12.7684	12.625	0.000217216	0.0041841
12.7689	12.6255	-0.00138342	0.00371521
12.7694	12.626	-0.000374102	0.00301805
12.7699	12.6264	0.000236692	0.00224384
12.7703	12.6269	0.000396475	0.00312031
12.7708	12.6274	9.4779e-05	0.00419672
12.7713	12.6279	-0.00143637	0.00389033
12.7717	12.6284	-0.000196377	0.00300092
12.7722	12.6288	0.000193478	0.00233677
12.7727	12.6293	0.000319517	0.00309171
12.7732	12.6297	0.000124189	0.00432143
12.7736	12.6302	-0.00158922	0.00377233
12.7741	12.6307	-0.000348491	0.00305976
12.7746	12.6312	0.000211883	0.00232931
12.7751	12.6316	0.000157469	0.00307828
12.7755	12.6321	0.000267903	0.00423859
12.776	12.6326	-0.00149105	0.00372079
12.7765	12.633	-0.000455929	0.00293381
12.7769	12.6335	0.000301112	0.00240887
12.7774	12.634	0.000264835	0.00307688
12.7779	12.6344	0.00025203	0.00435863
12.7784	12.6349	-0.00144757	0.00382945
12.7788	12.6354	-0.000228123	0.00287809
12.7793	12.6359	0.00024256	0.00221893
12.7798	12.6364	0.000222353	0.00306148
12.7802	12.6368	0.000202217	0.004254
12.7807	12.6373	-0.00149285	0.00376889
12.7812	12.6378	-0.000287407	0.00280212
12.7817	12.6382	0.000291374	0.00237725
12.7821	12.6387	0.000180208	0.00315784
12.7826	12.6392	0.000149265	0.00443181
12.7831	12.6396	-0.00137548	0.00366179
12.7836	12.6401	-0.000405777	0.00280786
12.784	12.6406	0.00049257	0.00225442
12.7845	12.641	0.000181475	0.00313277
12.785	12.6415	0.000118589	0.00427472
12.7854	12.642	-0.00134581	0.00360779
12.7859	12.6424	-0.000310414	0.00267274
12.7864	12.6429	0.00038087	0.00228088
12.7869	12.6434	7.20393e-05	0.00308
12.7873	12.6438	-2.07916e-05	0.00430398
12.7878	12.6443	-0.00141256	0.00357788
12.7883	12.6448	-0.000328284	0.00264004
12.7887	12.6453	0.000560593	0.00237865
12.7892	12.6458	1.88911e-05	0.00312048
12.7897	12.6462	3.2855e-06	0.00434355
12.7902	12.6467	-0.00128065	0.00351093
12.7906	12.6472	-0.000403512	0.00263537
12.7911	12.6477	0.000612475	0.00239126
12.7916	12.6481	7.61942e-06	0.00319086
12.7921	12.6486	-2.20579e-05	0.00420327
12.7925	12.6491	-0.00129799	0.00369588
12.793	12.6495	-0.0003733	0.00266619
12.7935	12.65	0.000616345	0.00244699
12.7939	12.6505	1.04195e-05	0.00322946
12.7944	12.651	-0.000179041	0.00428497
12.7949	12.6515	-0.0011114	0.00367178
12.7954	12.6519	-0.000475066	0.00257793
12.7958	12.6524	0.0006897	0.00249262
12.7963	12.6529	5.4365e-05	0.00321717
12.7968	12.6533	-0.000165701	0.00431193
12.7972	12.6538	-0.00112114	0.00357632
12.7977	12.6543	-0.000447725	0.00249074
12.7982	12.6547	0.000646753	0.00242535
12.7987	12.6552	8.12422e-05	0.003222
12.7991	12.6557	-0.000276938	0.00420171
12.7996	12.6562	-0.00116075	0.00358878
12.8001	12.6567	-0.000539219	0.00253901
12.8006	12.6571	0.000710638	0.00240388
12.801	12.6576	6.92392e-05	0.00323166
12.8015	12.6581	-0.000393507	0.00427596
12.802	12.6586	-0.0011096	0.00344071
12.8024	12.659	-0.000619779	0.0024632
12.8029	12.6595	0.000893696	0.00258104
12.8034	12.66	-0.000130423	0.00327321
12.8039	12.6604	-0.000391706	0.00425899
12.8043	12.6609	-0.001118	0.00354412
12.8048	12.6614	-0.000556091	0.00233677
12.8053	12.6619	0.000821608	0.00253605
12.8057	12.6623	-0.000151897	0.00327133
12.8062	12.6628	-0.000389173	0.00423768
12.8067	12.6632	-0.000922742	0.00352946
12.8072	12.6637	-0.000585768	0.00244903
12.8076	12.6642	0.000868692	0.00268519
12.8081	12.6646	-5.03978e-05	0.0034798
12.8086	12.6651	-0.000489405	0.00424514
12.8091	12.6656	-0.000917605	0.00363065
12.8095	12.6661	-0.000539486	0.00226548
12.81	12.6666	0.00085742	0.00271322
12.8105	12.667	2.88252e-05	0.00340507
12.8109	12.6675	-0.000435722	0.00414067
12.8114	12.668	-0.00097309	0.00346938
12.8119	12.6685	-0.000571161	0.00237119
12.8124	12.6689	0.000948182	0.00263119
12.8128	12.6694	-4.9934e-05	0.00341178
12.8133	12.6698	-0.000500873	0.00431692
12.8138	12.6703	-0.000927343	0.00354642
12.8142	12.6708	-0.000729678	0.00219665
12.8147	12.6713	0.00102894	0.00272379
12.8152	12.6717	-0.000164702	0.00350986
12.8157	12.6722	-0.000562761	0.00423703
12.8161	12.6726	-0.000828644	0.00340834
12.8166	12.6731	-0.000629249	0.00229645
12.8171	12.6736	0.00106295	0.00268052
12.8176	12.6741	-9.87483e-05	0.00351389
12.818	12.6745	-0.000662726	0.00423408
12.8185	12.675	-0.000762156	0.00348742
12.819	12.6755	-0.000770824	0.00234751
12.8194	12.676	0.000883762	0.00260858
12.8199	12.6765	-0.000145761	0.00359968
12.8204	12.6769	-0.00067373	0.00417696
12.8209	12.6774	-0.000766757	0.00352978
12.8213	12.6779	-0.000756021	0.00216723
12.8218	12.6784	0.00103047	0.00275821
12.8223	12.6788	-0.000175706	0.00363565
12.8227	12.6793	-0.000731747	0.00410642
12.8232	12.6798	-0.000660657	0.00346562
12.8237	12.6802	-0.000639451	0.0022032
12.8242	12.6807	0.00101134	0.00278467
12.8246	12.6812	2.06212e-05	0.00368482
12.8251	12.6817	-0.000823508	0.00424826
12.8256	12.6821	-0.000658392	0.00340056
12.8261	12.6826	-0.000760354	0.00212069
12.8265	12.6831	0.000952516	0.00273641
12.827	12.6835	-6.75372e-05	0.00370071
12.8275	12.684	-0.000865456	0.00414878
12.8279	12.6845	-0.000598573	0.00341801
12.8284	12.685	-0.000660389	0.00219337
12.8289	12.6854	0.000852284	0.00276459
12.8294	12.6859	-0.000191776	0.00376283
12.8298	12.6864	-0.00100583	0.00417836
12.8303	12.6869	-0.000580631	0.0033618
12.8308	12.6874	-0.000504209	0.00211618
12.8312	12.6878	0.000851552	0.00287653
12.8317	12.6883	-6.19369e-05	0.00374324
12.8322	12.6888	-0.000940345	0.00410346
12.8327	12.6892	-0.000594703	0.00336647
12.8331	12.6897	-0.000454128	0.00212879
12.8336	12.6902	0.000799403	0.00284244
12.8341	12.6906	-4.71338e-05	0.00369728
12.8346	12.6911	-0.000957752	0.00414518
12.835	12.6916	-0.000517745	0.00334623
12.8355	12.6921	-0.000452327	0.00216224
12.836	12.6925	0.000769458	0.00293537
12.8364	12.693	-6.4737e-05	0.00383133
12.8369	12.6934	-0.00108226	0.00405332
12.8374	12.6939	-0.000389173	0.0033618
12.8379	12.6944	-0.000336756	0.00214141
12.8383	12.6949	0.000738782	0.00278467
12.8388	12.6953	-1.15176e-05	0.00395712
12.8393	12.6958	-0.00118349	0.00405569
12.8397	12.6963	-0.00046993	0.00327412
12.8402	12.6968	-0.000337487	0.00226703
12.8407	12.6972	0.000620144	0.00286391
12.8412	12.6977	-7.62762e-05	0.00396023
12.8416	12.6982	-0.00121543	0.00399588
12.8421	12.6987	-0.000392241	0.00322446
12.8426	12.6991	-0.00027107	0.00219354
12.8431	12.6996	0.000578998	0.00295266
12.8435	12.7	-4.9399e-05	0.0040071
12.844	12.7005	-0.00140949	0.00392303
12.8445	12.701	-0.000336489	0.00318103
12.8449	12.7015	-0.000265933	0.00227933
12.8454	12.7019	0.000505911	0.00295405
12.8459	12.7024	3.74931e-06	0.00403856
12.8464	12.7029	-0.00134841	0.00396039
12.8468	12.7033	-0.000368966	0.00298814
12.8473	12.7038	-0.000195646	0.00236324
12.8478	12.7043	0.000481637	0.0029198
12.8482	12.7048	9.81141e-05	0.00398251
12.8487	12.7053	-0.00144577	0.00396383
12.8492	12.7057	-0.000274869	0.00320299
12.8497	12.7062	5.92339e-05	0.00225549
12.8501	12.7067	0.000431485	0.00300355
12.8506	12.7072	3.72256e-05	0.0040697
12.8511	12.7077	-0.0014187	0.00394139
12.8516	12.7081	-0.000328819	0.00307721
12.852	12.7086	-8.62104e-05	0.00224229
12.8525	12.7091	0.000506909	0.00293209
12.853	12.7095	0.000134194	0.00397269
12.8534	12.71	-0.00147852	0.00403619
12.8539	12.7105	-0.00034389	0.00307254
12.8544	12.7109	-8.03426e-05	0.00226236
12.8549	12.7114	0.000414078	0.00291873
12.8553	12.7119	0.00021982	0.00415796
12.8558	12.7124	-0.00146498	0.00387895
12.8563	12.7128	-0.000352094	0.00307049
12.8567	12.7133	6.23015e-05	0.00224819
12.8572	12.7138	0.000365264	0.00307221
12.8577	12.7142	0.000203144	0.00417181
12.8582	12.7147	-0.00154294	0.00374479
12.8586	12.7152	-0.000349561	0.00299592
12.8591	12.7157	4.46983e-05	0.00232759
12.8596	12.7162	0.000369866	0.00303082
12.8601	12.7166	0.000184275	0.00423236
12.8605	12.7171	-0.00145784	0.00381109
12.861	12.7176	-0.000316014	0.00299313
12.8615	12.7181	0.000161	0.002284
12.8619	12.7185	0.000249497	0.00291373
12.8624	12.719	0.000164068	0.0042358
12.8629	12.7194	-0.00140056	0.003777
12.8634	12.7199	-0.000311413	0.00307393
12.8638	12.7204	0.000226954	0.00236512
12.8643	12.7208	0.000167403	0.0029788
12.8648	12.7213	0.000268634	0.00426023
12.8652	12.7218	-0.0015276	0.00388443
12.8657	12.7223	-0.000354359	0.00299813
12.8662	12.7227	0.000348927	0.0022082
12.8667	12.7232	0.000135924	0.00306958
12.8671	12.7236	0.000240758	0.00432905
12.8676	12.7241	-0.00136574	0.0036677
12.8681	12.7246	-0.000316549	0.00292807
12.8686	12.7251	0.000278836	0.00227015
12.869	12.7255	0.000220551	0.00310507
12.8695	12.726	0.000258896	0.00440239
12.87	12.7265	-0.0013328	0.00370071
12.8704	12.727	-0.00023499	0.00287202
12.8709	12.7274	0.000345592	0.00242396
12.8714	12.7279	0.00012599	0.00319118
12.8719	12.7284	0.000228755	0.0044332
12.8723	12.7289	-0.00141183	0.00369416
12.8728	12.7293	-0.000323754	0.00284851
12.8733	12.7298	0.000419215	0.00236152
12.8737	12.7303	1.34872e-05	0.00310867
12.8742	12.7307	7.12368e-05	0.00431553
12.8747	12.7312	-0.00131513	0.00365868
12.8752	12.7317	-0.00029941	0.00278623
12.8756	12.7322	0.000511243	0.00234939
12.8761	12.7326	0.000207549	0.0031812
12.8766	12.7331	-4.5065e-05	0.00433029
12.8771	12.7336	-0.00129826	0.00368842
12.8775	12.734	-0.000324218	0.00278
12.878	12.7345	0.000639084	0.00242412
12.8785	12.735	6.81692e-05	0.00318914
12.8789	12.7355	2.42238e-05	0.0043552
12.8794	12.736	-0.00125251	0.00373652
12.8799	12.7364	-0.000360031	0.0026198
12.8804	12.7369	0.000507177	0.00239889
12.8808	12.7374	-4.9399e-05	0.00326232
12.8813	12.7379	-0.000113088	0.00439256
12.8818	12.7384	-0.00123284	0.00363049
12.8822	12.7388	-0.000414445	0.00256891
12.8827	12.7393	0.000605876	0.00249493
12.8832	12.7398	4.74984e-05	0.00317562
12.8837	12.7402	-0.000199177	0.00435413
12.8841	12.7407	-0.00115255	0.00375193
12.8846	12.7412	-0.000546424	0.00251877
12.8851	12.7417	0.000745452	0.00249869
12.8856	12.7421	-3.53272e-05	0.00326978
12.886	12.7426	-0.000275671	0.00442198
12.8865	12.743	-0.00118115	0.00354798
12.887	12.7435	-0.000520082	0.00235562
12.8874	12.744	0.00065189	0.00252843
12.8879	12.7445	-8.4409e-05	0.0032642
12.8884	12.7449	-0.000259798	0.00423752
12.8889	12.7454	-0.00119656	0.00360607
12.8893	12.7459	-0.000485803	0.00251753
12.8898	12.7464	0.000758721	0.00250647
12.8903	12.7468	-8.82792e-05	0.00320267
12.8907	12.7473	-0.000360762	0.00431053
12.8912	12.7478	-0.0010017	0.00343358
12.8917	12.7483	-0.000509077	0.00247255
12.8922	12.7487	0.000838479	0.00251549
12.8926	12.7492	-8.72092e-05	0.0032715
12.8931	12.7497	-0.000478865	0.0042059
12.8936	12.7501	-0.000925542	0.00349102
12.8941	12.7506	-0.000408845	0.00238053
12.8945	12.7511	0.000911638	0.00251581
12.895	12.7515	-4.86677e-05	0.00339481
12.8955	12.752	-0.000551757	0.00428235
12.8959	12.7525	-0.000891798	0.00338622
12.8964	12.7529	-0.00061211	0.002343
12.8969	12.7534	0.000889363	0.00258104
12.8974	12.7539	-5.27341e-05	0.00336351
12.8978	12.7543	-0.000448456	0.00425636
12.8983	12.7548	-0.000902267	0.00354223
12.8988	12.7553	-0.000596772	0.00234751
