# 1304     AichiSR QXAFS
# Start     : 8.9544
# End       : 9.0544
# Dir       : Backward
# Points    : 300
# ScanTime  : 1.01549
# Date      : 13.04.23 23:29
# Ring Cur. : 0.9[mA]
12.7557	12.6123	-8.13414e-05	0.00358706
12.7562	12.6128	-0.000757019	0.00414394
12.7566	12.6132	-0.000466862	0.00345365
12.7571	12.6137	-0.000545354	0.00211913
12.7576	12.6142	0.00088016	0.00280057
12.7581	12.6146	-0.00022172	0.00371891
12.7585	12.6151	-0.00107612	0.0040879
12.759	12.6156	-0.00050321	0.00332926
12.7595	12.6161	-0.000523417	0.00210479
12.7599	12.6166	0.000801668	0.00270994
12.7604	12.617	-1.89903e-05	0.00372423
12.7609	12.6175	-0.00103057	0.00407126
12.7614	12.618	-0.00065379	0.00324986
12.7618	12.6185	-0.000515213	0.00211741
12.7623	12.6189	0.000768192	0.0027632
12.7628	12.6194	-7.29411e-05	0.00374119
12.7632	12.6199	-0.00103778	0.00395712
12.7637	12.6203	-0.000405046	0.00328706
12.7642	12.6208	-0.000359032	0.00210544
12.7647	12.6213	0.000772526	0.00288989
12.7651	12.6218	-5.6533e-05	0.0038047
12.7656	12.6222	-0.0011152	0.00394638
12.7661	12.6227	-0.000412715	0.0032002
12.7666	12.6232	-0.000407311	0.00213003
12.767	12.6236	0.00077793	0.00270978
12.7675	12.6241	1.96224e-05	0.00383879
12.768	12.6246	-0.00109146	0.00400914
12.7684	12.6251	-0.000435919	0.0032315
12.7689	12.6255	-0.000463598	0.00213454
12.7694	12.626	0.000766123	0.0027895
12.7699	12.6265	-4.29962e-05	0.00380454
12.7703	12.627	-0.00115995	0.00403529
12.7708	12.6275	-0.000459193	0.00318275
12.7713	12.6279	-0.000459193	0.00218559
12.7717	12.6284	0.000838016	0.00289489
12.7722	12.6289	1.37547e-05	0.00380126
12.7727	12.6293	-0.00123484	0.00399309
12.7732	12.6298	-0.000342891	0.00320144
12.7736	12.6303	-0.000423648	0.00220492
12.7741	12.6307	0.000658025	0.00286982
12.7746	12.6312	-4.81327e-05	0.0038637
12.7751	12.6317	-0.00126098	0.00389221
12.7755	12.6322	-0.000369233	0.00321593
12.776	12.6326	-0.000257729	0.00212708
12.7765	12.6331	0.000540653	0.00286547
12.7769	12.6335	2.47588e-05	0.00390107
12.7774	12.634	-0.00121317	0.00393532
12.7779	12.6345	-0.000456661	0.00305369
12.7784	12.635	-0.000172371	0.00220787
12.7788	12.6354	0.000586667	0.00291357
12.7793	12.6359	9.35127e-05	0.00389705
12.7798	12.6364	-0.00121263	0.00378618
12.7802	12.6369	-0.000402977	0.00304
12.7807	12.6374	-0.000156231	0.0021937
12.7812	12.6378	0.000546788	0.0028426
12.7817	12.6383	2.75589e-05	0.00393736
12.7821	12.6388	-0.00143123	0.00386403
12.7826	12.6392	-0.000351559	0.00308188
12.7831	12.6397	-0.000178506	0.00214076
12.7836	12.6401	0.00056086	0.00288383
12.784	12.6406	0.000127791	0.00399743
12.7845	12.6411	-0.00125124	0.00385157
12.785	12.6416	-0.000428053	0.00310196
12.7854	12.642	-0.000126357	0.00219976
12.7859	12.6425	0.000554992	0.00298363
12.7864	12.643	0.000171202	0.00415968
12.7869	12.6434	-0.00137982	0.00378258
12.7873	12.6439	-0.00032115	0.00299625
12.7878	12.6444	-0.000120685	0.00222172
12.7883	12.6448	0.000438352	0.0029606
12.7887	12.6453	6.89717e-05	0.00406733
12.7892	12.6458	-0.00135708	0.00391712
12.7897	12.6463	-0.000339556	0.00291905
12.7902	12.6468	-2.84973e-06	0.00207194
12.7906	12.6472	0.000383937	0.00290815
12.7911	12.6477	0.000141596	0.00406331
12.7916	12.6482	-0.0014315	0.00371612
12.7921	12.6487	-0.000335222	0.00304296
12.7925	12.6491	8.42192e-06	0.00211134
12.793	12.6496	0.000513312	0.00283417
12.7935	12.6501	4.46983e-05	0.00401488
12.7939	12.6505	-0.00147572	0.00389468
12.7944	12.651	-0.000241125	0.00299888
12.7949	12.6515	0.000139794	0.00220288
12.7954	12.652	0.000476965	0.00285752
12.7958	12.6524	0.000207549	0.00421105
12.7963	12.6529	-0.0015534	0.00383305
12.7968	12.6534	-0.000380505	0.00293118
12.7972	12.6538	0.000240758	0.00223573
12.7977	12.6543	0.00041308	0.00288088
12.7982	12.6548	0.000305981	0.0040647
12.7987	12.6553	-0.0015404	0.00378479
12.7991	12.6558	-0.000323951	0.00295577
12.7996	12.6562	-2.4323e-05	0.00218296
12.8001	12.6567	0.000439689	0.00296855
12.8006	12.6572	0.000182741	0.0041782
12.801	12.6577	-0.00151659	0.0036808
12.8015	12.6581	-0.000409112	0.00296667
12.802	12.6586	0.000178675	0.00217099
12.8024	12.6591	0.000346858	0.00300092
12.8029	12.6595	9.78466e-05	0.00414132
12.8034	12.66	-0.00139309	0.00371956
12.8039	12.6605	-0.000368966	0.00283793
12.8043	12.6609	0.000220819	0.00221378
12.8048	12.6614	0.000297045	0.00300092
12.8053	12.6619	0.000215218	0.00411624
12.8057	12.6624	-0.0014399	0.00365401
12.8062	12.6628	-0.000268002	0.00279713
12.8067	12.6633	0.000224154	0.00219993
12.8072	12.6637	0.000224421	0.00296044
12.8076	12.6642	0.000231288	0.00418942
12.8081	12.6647	-0.00145911	0.00359205
12.8086	12.6652	-0.000257997	0.00290439
12.8091	12.6657	0.000290108	0.00222221
12.8095	12.6661	0.000240491	0.00308467
12.81	12.6666	0.000199345	0.0042839
12.8105	12.6671	-0.0014253	0.00370662
12.8109	12.6676	-0.000309415	0.00289194
12.8114	12.668	0.000310315	0.00225474
12.8119	12.6685	5.15648e-05	0.00297118
12.8124	12.669	0.000192675	0.00418008
12.8128	12.6694	-0.00129906	0.00360279
12.8133	12.6699	-0.000269268	0.00286112
12.8138	12.6703	0.00031925	0.00225426
12.8142	12.6708	0.000250496	0.00297961
12.8147	12.6713	0.000183009	0.00418598
12.8152	12.6718	-0.00145651	0.00370678
12.8157	12.6722	-0.000444123	0.00267306
12.8161	12.6727	0.000316717	0.00235873
12.8166	12.6732	0.000194476	0.00306164
12.8171	12.6736	0.000181939	0.00414878
12.8176	12.6741	-0.00137882	0.00372718
12.818	12.6746	-0.000335222	0.00277721
12.8185	12.6751	0.000460093	0.00227466
12.819	12.6755	0.000136994	0.00302943
12.8194	12.676	8.40423e-05	0.00427972
12.8199	12.6765	-0.00138955	0.00355592
12.8204	12.677	-0.000343426	0.00273002
12.8209	12.6775	0.000381869	0.00231014
12.8213	12.6779	0.000118321	0.00312687
12.8218	12.6784	0.000138724	0.00425072
12.8223	12.6789	-0.00125711	0.00365884
12.8227	12.6793	-0.000453058	0.00263086
12.8232	12.6798	0.000528115	0.00235374
12.8237	12.6803	-4.11604e-06	0.00308204
12.8242	12.6808	5.67013e-05	0.00425105
12.8246	12.6812	-0.00135274	0.00365089
12.8251	12.6817	-0.000416514	0.00261718
12.8256	12.6822	0.000504377	0.00243765
12.8261	12.6826	3.28917e-05	0.00316579
12.8265	12.6831	-8.34102e-05	0.00423408
12.827	12.6836	-0.00117042	0.00360328
12.8275	12.6841	-0.00043492	0.00259849
12.8279	12.6845	0.000513045	0.00243207
12.8284	12.685	7.35732e-05	0.00317841
12.8289	12.6855	3.95619e-05	0.00424858
12.8294	12.686	-0.0011124	0.00358985
12.8298	12.6865	-0.000362831	0.00252392
12.8303	12.6869	0.000593801	0.00237569
12.8308	12.6874	-1.51202e-05	0.00315645
12.8312	12.6879	-4.65104e-06	0.00434757
12.8317	12.6884	-0.00120676	0.0035701
12.8322	12.6888	-0.00039711	0.00264316
12.8327	12.6893	0.000626546	0.00247534
12.8331	12.6897	-3.63972e-05	0.00322323
12.8336	12.6902	-4.78652e-05	0.00422597
12.8341	12.6907	-0.0012009	0.0036663
12.8346	12.6912	-0.000419118	0.0025454
12.835	12.6916	0.000606339	0.00241617
12.8355	12.6921	2.80227e-05	0.00329313
12.836	12.6926	-6.4737e-05	0.00432873
12.8364	12.693	-0.00109606	0.00348495
12.8369	12.6935	-0.000352897	0.00255007
12.8374	12.694	0.000634215	0.00247378
12.8379	12.6944	4.9496e-05	0.00320283
12.8383	12.6949	-0.000197911	0.00428718
12.8388	12.6954	-0.00111033	0.00354331
12.8393	12.6959	-0.000427251	0.00256875
12.8397	12.6963	0.00076359	0.00241183
12.8402	12.6968	-6.60034e-05	0.00322914
12.8407	12.6973	-0.000240661	0.00428218
12.8412	12.6978	-0.00102397	0.0035097
12.8416	12.6982	-0.000476868	0.00247517
12.8421	12.6987	0.000762324	0.00249246
12.8426	12.6992	-2.38592e-06	0.00331181
12.8431	12.6996	-0.000254198	0.00429464
12.8435	12.7001	-0.000991763	0.00352323
12.844	12.7006	-0.000433118	0.00235266
12.8445	12.701	0.000870957	0.00247271
12.8449	12.7015	-8.21439e-05	0.00335229
12.8454	12.702	-0.000266201	0.00417803
12.8459	12.7024	-0.000983827	0.00337409
12.8464	12.7029	-0.000530818	0.00243765
12.8468	12.7034	0.000860755	0.00253557
12.8473	12.7039	1.24883e-05	0.0033568
12.8478	12.7043	-0.000428784	0.00415001
12.8482	12.7048	-0.000859053	0.00353944
12.8487	12.7053	-0.0004738	0.00229694
12.8492	12.7058	0.000839746	0.0025345
12.8497	12.7063	-3.22596e-05	0.0033364
12.8501	12.7067	-0.000459996	0.00422023
12.8506	12.7072	-0.000878725	0.00350659
12.8511	12.7077	-0.000599037	0.00240184
12.8516	12.7082	0.000946381	0.0024238
12.852	12.7086	-7.29411e-05	0.00332459
12.8525	12.7091	-0.000459728	0.00420139
12.853	12.7096	-0.00093421	0.00352527
12.8534	12.71	-0.000564027	0.00227154
12.8539	12.7105	0.000969121	0.00260735
12.8544	12.711	-7.88088e-05	0.00339589
12.8549	12.7115	-0.000527751	0.00424777
12.8553	12.7119	-0.000880259	0.00346767
12.8558	12.7124	-0.000569895	0.00226515
12.8563	12.7129	0.00097679	0.00273394
12.8567	12.7133	-0.000104349	0.00337253
12.8572	12.7138	-0.000434188	0.00423859
12.8577	12.7143	-0.000847318	0.00359935
12.8582	12.7148	-0.000632781	0.00224368
12.8586	12.7152	0.00104201	0.00261046
12.8591	12.7157	-7.674e-05	0.00345086
12.8596	12.7162	-0.000554824	0.00415452
12.8601	12.7167	-0.000750153	0.00340678
12.8605	12.7171	-0.000668326	0.00222811
12.861	12.7176	0.00105835	0.00278172
12.8615	12.7181	3.74931e-06	0.00352355
12.8619	12.7186	-0.000639719	0.00415624
12.8624	12.719	-0.000748084	0.00340695
12.8629	12.7195	-0.000546156	0.00224524
12.8634	12.7199	0.000993661	0.00273501
12.8638	12.7204	-3.96611e-05	0.00354052
12.8643	12.7209	-0.000724346	0.00413944
12.8648	12.7214	-0.000658124	0.00355453
12.8652	12.7218	-0.000663992	0.00220164
12.8657	12.7223	0.00103101	0.00262947
12.8662	12.7228	-8.85467e-05	0.00358878
12.8667	12.7232	-0.000721813	0.00422302
12.8671	12.7237	-0.000541822	0.00338466
12.8676	12.7242	-0.000665793	0.00225705
12.8681	12.7246	0.000977325	0.00265405
12.8686	12.7251	-0.000144763	0.00363221
12.869	12.7256	-0.000756288	0.00423999
12.8695	12.7261	-0.000682665	0.00341629
12.87	12.7265	-0.000622312	0.00217985
12.8704	12.727	0.00098906	0.00267929
12.8709	12.7275	3.59593e-05	0.00364966
12.8714	12.728	-0.000813306	0.00410814
12.8719	12.7284	-0.000601373	0.00344726
12.8723	12.7289	-0.000686	0.00218452
12.8728	12.7294	0.000885296	0.00265282
12.8733	12.7298	-5.09328e-05	0.00355592
12.8737	12.7303	-0.000785698	0.00427145
12.8742	12.7308	-0.000548956	0.00343932
12.8747	12.7313	-0.000508275	0.00217035
12.8752	12.7317	0.00102414	0.00269872
12.8756	12.7322	-0.000149364	0.00358395
12.8761	12.7327	-0.000755753	0.00415221
12.8766	12.7331	-0.000565026	0.00341424
12.8771	12.7336	-0.000560424	0.002161
12.8775	12.7341	0.000898298	0.00282064
12.878	12.7346	5.81811e-06	0.00364327
12.8785	12.7351	-0.000904336	0.00416885
12.8789	12.7355	-0.000400641	0.00343899
12.8794	12.736	-0.000539754	0.00206915
12.8799	12.7365	0.000864019	0.00278279
12.8804	12.737	-4.65988e-05	0.00369416
12.8808	12.7375	-0.000722812	0.00407265
12.8813	12.7379	-0.000413446	0.00343186
12.8818	12.7384	-0.000512145	0.00205546
12.8822	12.7389	0.000808873	0.00277673
12.8827	12.7393	3.06265e-05	0.00371333
12.8832	12.7398	-0.000959018	0.00398235
12.8837	12.7403	-0.000469466	0.0033881
12.8841	12.7407	-0.000589103	0.00218812
12.8846	12.7412	0.000868888	0.00273968
12.8851	12.7417	-5.45354e-06	0.00369449
12.8856	12.7422	-0.00106332	0.00405815
12.886	12.7426	-0.000546156	0.00321905
12.8865	12.7431	-0.000494738	0.00206571
12.887	12.7436	0.000827743	0.00286686
12.8874	12.744	0.000102983	0.0037938
12.8879	12.7445	-0.00104671	0.00408387
12.8884	12.745	-0.0003649	0.00316627
12.8889	12.7455	-0.000480934	0.00211602
12.8893	12.7459	0.000772062	0.0028281
12.8898	12.7464	-3.65935e-05	0.00373792
12.8903	12.7469	-0.00101243	0.00405381
12.8907	12.7474	-0.000507544	0.00332566
12.8912	12.7478	-0.000472997	0.00214592
12.8917	12.7483	0.000749519	0.00286236
12.8922	12.7488	-6.93385e-05	0.00387836
12.8926	12.7492	-0.00108326	0.00403717
12.8931	12.7497	-0.000525682	0.00315145
12.8936	12.7502	-0.000358764	0.0021347
12.8941	12.7506	0.000640886	0.00281146
12.8945	12.7511	3.67618e-05	0.00391122
12.895	12.7516	-0.00121697	0.00389156
12.8955	12.7521	-0.000388638	0.00322618
12.8959	12.7525	-0.000298411	0.00203071
12.8964	12.753	0.000638282	0.00289849
12.8969	12.7534	-6.78047e-05	0.00386059
12.8974	12.7539	-0.00118836	0.00383149
12.8978	12.7544	-0.000402442	0.00314539
12.8983	12.7549	-0.000211251	0.0021624
12.8988	12.7553	0.000632682	0.00281163
