# 1304     AichiSR QXAFS
# Start     : 8.9544
# End       : 9.0544
# Dir       : Forward
# Points    : 300
# ScanTime  : 1.01549
# Date      : 13.04.24 00:14
# Ring Cur. : 0.9[mA]
12.7557	12.7563	-6.04031e-05	0.00341194
12.7562	12.7558	-0.000571161	0.00422318
12.7566	12.7553	-0.000808972	0.00346997
12.7571	12.7548	-0.000614643	0.0021923
12.7576	12.7544	0.00101414	0.00275992
12.7581	12.7539	-7.57412e-05	0.00349381
12.7585	12.7534	-0.000545086	0.0042095
12.759	12.753	-0.000778296	0.00360214
12.7595	12.7525	-0.00056656	0.00223901
12.7599	12.752	0.000989863	0.00264053
12.7604	12.7516	-9.94796e-05	0.00354486
12.7609	12.7511	-0.000730213	0.00421916
12.7614	12.7506	-0.000804835	0.00347545
12.7618	12.7502	-0.000587569	0.00218329
12.7623	12.7497	0.000961987	0.00274731
12.7628	12.7492	-0.000131226	0.00355576
12.7632	12.7488	-0.000776228	0.00417336
12.7637	12.7483	-0.000691333	0.00346144
12.7642	12.7478	-0.000685198	0.00230703
12.7647	12.7474	0.00104148	0.00273297
12.7651	12.7469	-2.38592e-05	0.00357214
12.7656	12.7464	-0.000692867	0.00410502
12.7661	12.7459	-0.000616444	0.00331305
12.7666	12.7455	-0.000597503	0.00231465
12.767	12.745	0.00100467	0.00274108
12.7675	12.7445	-4.47975e-05	0.0035469
12.768	12.744	-0.000759356	0.00422925
12.7684	12.7436	-0.000737151	0.00336131
12.7689	12.7431	-0.000601837	0.00211913
12.7694	12.7426	0.000881159	0.0028594
12.7699	12.7422	-0.00015063	0.00374882
12.7703	12.7417	-0.000763957	0.00416606
12.7708	12.7412	-0.000552559	0.00335713
12.7713	12.7407	-0.000626449	0.00212536
12.7717	12.7403	0.000970654	0.00271273
12.7722	12.7398	-0.000135827	0.00374742
12.7727	12.7393	-0.000903266	0.0042322
12.7732	12.7389	-0.000565293	0.00334
12.7736	12.7384	-0.000623578	0.0022046
12.7741	12.7379	0.000927173	0.00286424
12.7746	12.7375	-0.000104081	0.00373046
12.7751	12.737	-0.000817373	0.0041659
12.7755	12.7365	-0.000529284	0.00337753
12.776	12.736	-0.000538684	0.00224696
12.7765	12.7355	0.000784529	0.00277582
12.7769	12.7351	-0.000122558	0.00378307
12.7774	12.7346	-0.000987625	0.00403717
12.7779	12.7341	-0.000547155	0.00334139
12.7784	12.7336	-0.000546156	0.00218248
12.7788	12.7331	0.000854352	0.00279917
12.7793	12.7327	-4.32637e-05	0.00372997
12.7798	12.7322	-0.00102144	0.00410158
12.7802	12.7317	-0.000409647	0.00332706
12.7807	12.7313	-0.000452523	0.00212863
12.7812	12.7308	0.000836214	0.00282687
12.7817	12.7303	-0.000191312	0.00370555
12.7821	12.7298	-0.000986627	0.0040239
12.7826	12.7294	-0.000468396	0.00329329
12.7831	12.7289	-0.000448724	0.00214232
12.7836	12.7284	0.000681764	0.00276803
12.784	12.728	-1.05188e-05	0.00379659
12.7845	12.7275	-0.00112494	0.00393269
12.785	12.727	-0.000427786	0.00321201
12.7854	12.7266	-0.000407846	0.00214248
12.7859	12.7261	0.000727778	0.00279745
12.7864	12.7256	-7.98616e-06	0.00383584
12.7869	12.7251	-0.00107459	0.00401505
12.7873	12.7246	-0.00043492	0.00323118
12.7878	12.7242	-0.000445924	0.00220476
12.7883	12.7237	0.000608141	0.00292963
12.7887	12.7232	3.80281e-05	0.0038578
12.7892	12.7228	-0.00116742	0.00402267
12.7897	12.7223	-0.000493472	0.00324503
12.7902	12.7219	-0.000162901	0.00215182
12.7906	12.7214	0.000653156	0.00279852
12.7911	12.7209	-4.11949e-05	0.00394203
12.7916	12.7204	-0.00117502	0.00390172
12.7921	12.72	-0.000408577	0.00317234
12.7925	12.7195	-0.000211251	0.00215166
12.793	12.719	0.000626011	0.00288276
12.7935	12.7186	6.61716e-05	0.00403013
12.7939	12.7181	-0.00114668	0.00395776
12.7944	12.7176	-0.000447458	0.00317357
12.7949	12.7172	-0.000292276	0.00219214
12.7954	12.7167	0.000533252	0.00292496
12.7958	12.7162	2.72914e-05	0.00400538
12.7963	12.7157	-0.00124998	0.0038964
12.7968	12.7153	-0.00046713	0.00307393
12.7972	12.7148	-0.000192311	0.00222296
12.7977	12.7143	0.000500043	0.00298036
12.7982	12.7138	0.000130592	0.00400055
12.7987	12.7133	-0.00134408	0.00398498
12.7991	12.7129	-0.000327553	0.00308467
12.7996	12.7124	-0.000152699	0.00218452
12.8001	12.712	0.000512777	0.00298396
12.8006	12.7115	5.97689e-05	0.00409429
12.801	12.711	-0.00137755	0.00388754
12.8015	12.7105	-0.000333421	0.00306459
12.802	12.7101	-5.96006e-05	0.00211167
12.8024	12.7096	0.000379603	0.0028812
12.8029	12.7091	1.68223e-05	0.00402922
12.8034	12.7087	-0.00132053	0.00399153
12.8039	12.7082	-0.000380969	0.00310786
12.8043	12.7077	7.61058e-05	0.00213019
12.8048	12.7072	0.000370401	0.00292651
12.8053	12.7068	0.00019041	0.00403061
12.8057	12.7063	-0.0014407	0.00380298
12.8062	12.7058	-0.000509077	0.00299641
12.8067	12.7053	9.15323e-06	0.00219681
12.8072	12.7048	0.000306516	0.00294036
12.8076	12.7043	0.000205748	0.00412977
12.8081	12.7039	-0.00136221	0.00374742
12.8086	12.7034	-0.000215318	0.00289505
12.8091	12.7029	1.5556e-05	0.00219214
12.8095	12.7025	0.000310582	0.00296355
12.81	12.702	9.12475e-05	0.00413321
12.8105	12.7015	-0.00152786	0.00376422
12.8109	12.7011	-0.000275404	0.00304591
12.8114	12.7006	8.50411e-05	0.00217346
12.8119	12.7001	0.000205481	0.00309868
12.8124	12.6996	0.000237958	0.00427768
12.8128	12.6992	-0.00141049	0.0036867
12.8133	12.6987	-0.000470732	0.00296012
12.8138	12.6983	8.79124e-05	0.00227621
12.8142	12.6978	0.000261964	0.00291685
12.8147	12.6973	6.41028e-05	0.00423424
12.8152	12.6968	-0.00146398	0.00374415
12.8157	12.6964	-0.000333688	0.00293897
12.8161	12.6959	0.000192746	0.00229957
12.8166	12.6954	0.000245627	0.00293413
12.8171	12.6949	0.000135924	0.00430521
12.8176	12.6945	-0.00144324	0.00387321
12.818	12.694	-0.000374834	0.00292119
12.8185	12.6935	0.000126454	0.00232743
12.819	12.693	0.000202948	0.00299051
12.8194	12.6926	0.000169936	0.00422769
12.8199	12.6921	-0.00137621	0.00384223
12.8204	12.6917	-0.00021612	0.00295921
12.8209	12.6912	0.000302378	0.00228105
12.8213	12.6907	0.000170471	0.0029307
12.8218	12.6902	0.000182474	0.00437141
12.8223	12.6898	-0.00146958	0.00370522
12.8227	12.6893	-0.000300943	0.00288383
12.8232	12.6888	0.000335587	0.0023212
12.8237	12.6884	3.21603e-05	0.00307549
12.8242	12.6879	0.000168669	0.00412977
12.8246	12.6874	-0.00134968	0.00374586
12.8251	12.687	-0.000425182	0.00276787
12.8256	12.6865	0.000465229	0.00235127
12.8261	12.686	0.000189608	0.00311409
12.8265	12.6855	6.18377e-05	0.00422474
12.827	12.685	-0.00140949	0.00370259
12.8275	12.6846	-0.000457196	0.00277238
12.8279	12.6841	0.000338922	0.00234923
12.8284	12.6836	0.000125723	0.00311629
12.8289	12.6831	1.86236e-05	0.00430119
12.8294	12.6827	-0.00144044	0.00364966
12.8298	12.6822	-0.000353628	0.00277098
12.8303	12.6817	0.000551657	0.00246239
12.8308	12.6813	8.53086e-05	0.0030487
12.8312	12.6808	6.41028e-05	0.0042635
12.8317	12.6803	-0.00139262	0.00361664
12.8322	12.6798	-0.000383769	0.00267601
12.8327	12.6794	0.000509977	0.00238799
12.8331	12.6789	8.68424e-05	0.00319881
12.8336	12.6784	7.69083e-05	0.00425851
12.8341	12.678	-0.00118196	0.00369637
12.8346	12.6775	-0.000499072	0.00256408
12.835	12.677	0.000553655	0.00241494
12.8355	12.6765	-7.98616e-06	0.00310523
12.836	12.676	-7.06048e-05	0.00435413
12.8364	12.6756	-0.00118629	0.00371194
12.8369	12.6751	-0.000367967	0.00254679
12.8374	12.6746	0.000621678	0.00231825
12.8379	12.6741	-6.4737e-05	0.0031739
12.8383	12.6736	-0.000145226	0.00433807
12.8388	12.6732	-0.00118629	0.00367736
12.8393	12.6727	-0.000490404	0.00263832
12.8397	12.6723	0.000653887	0.00250738
12.8402	12.6718	9.35127e-05	0.00308016
12.8407	12.6713	2.17883e-07	0.00417197
12.8412	12.6709	-0.00121417	0.00359361
12.8416	12.6704	-0.000525682	0.0025404
12.8421	12.6699	0.000591536	0.00240683
12.8426	12.6694	-5.58017e-05	0.00326527
12.8431	12.669	-7.39399e-05	0.00414411
12.8435	12.6685	-0.0012267	0.00358395
12.844	12.6681	-0.000561227	0.00256998
12.8445	12.6676	0.000652621	0.00241634
12.8449	12.6671	-0.000131761	0.00336024
12.8454	12.6666	-0.000188244	0.00425572
12.8459	12.6662	-0.00113648	0.00357461
12.8464	12.6657	-0.000432922	0.00255646
12.8468	12.6652	0.000734715	0.0025186
12.8473	12.6647	-1.23201e-05	0.00333705
12.8478	12.6642	-0.000291206	0.00423473
12.8482	12.6638	-0.00110346	0.00349864
12.8487	12.6633	-0.000479133	0.00249402
12.8492	12.6628	0.000688701	0.00244296
12.8497	12.6624	-8.77442e-05	0.00327445
12.8501	12.6619	-0.000286675	0.00430103
12.8506	12.6615	-0.00096362	0.00363205
12.8511	12.661	-0.000589834	0.00248967
12.8516	12.6605	0.00084128	0.0024551
12.852	12.66	-3.35259e-05	0.00341129
12.8525	12.6596	-0.000347225	0.00423064
12.853	12.6591	-0.000998897	0.00360435
12.8534	12.6586	-0.000549955	0.0024719
12.8539	12.6582	0.000947915	0.00252188
12.8544	12.6577	-0.000100282	0.00338826
12.8549	12.6572	-0.00039711	0.00428734
12.8553	12.6567	-0.000873392	0.00347529
12.8558	12.6563	-0.000447458	0.00239781
12.8563	12.6558	0.000963253	0.00268068
12.8567	12.6553	-0.000139626	0.00340195
12.8572	12.6548	-0.000368966	0.00429464
12.8577	12.6543	-0.00089533	0.00355313
12.8582	12.6539	-0.00057323	0.00235578
12.8586	12.6534	0.000961719	0.00254663
12.8591	12.6529	-6.24007e-05	0.00347013
12.8596	12.6525	-0.000430051	0.00417476
12.8601	12.652	-0.000913004	0.00355109
12.8605	12.6515	-0.00062051	0.00227482
12.861	12.651	0.000990861	0.00263086
12.8615	12.6506	-4.453e-05	0.00341596
12.8619	12.6501	-0.000553558	0.00416902
12.8624	12.6496	-0.000825577	0.00351249
12.8629	12.6492	-0.000668593	0.00226639
12.8634	12.6487	0.00103334	0.00263849
12.8638	12.6482	-0.000126089	0.00352543
12.8643	12.6477	-0.000561227	0.00430554
12.8648	12.6473	-0.000809704	0.00361385
12.8652	12.6468	-0.000611843	0.00233661
12.8657	12.6463	0.000968853	0.00266823
12.8662	12.6458	-0.000142694	0.00344898
12.8667	12.6453	-0.000609042	0.00421384
12.8671	12.6449	-0.000716409	0.00354502
12.8676	12.6444	-0.000659123	0.00228883
12.8681	12.6439	0.00104788	0.00261996
12.8686	12.6434	-4.19974e-05	0.00353445
12.869	12.643	-0.000688265	0.00417975
12.8695	12.6425	-0.000726343	0.0034639
12.87	12.6421	-0.000754219	0.00230252
12.8704	12.6416	0.000900099	0.00270355
12.8709	12.6411	-0.00015063	0.00358239
12.8714	12.6406	-0.000776495	0.00425121
12.8719	12.6402	-0.000623578	0.00353305
12.8723	12.6397	-0.000651722	0.00219821
12.8728	12.6393	0.00097679	0.00271617
12.8733	12.6388	-4.04636e-05	0.00350503
12.8737	12.6383	-0.000786964	0.00408355
12.8742	12.6379	-0.000719209	0.00348619
12.8747	12.6374	-0.000671661	0.00216584
12.8752	12.6369	0.000915437	0.00268814
12.8756	12.6364	-4.3995e-05	0.00361992
12.8761	12.636	-0.000754487	0.00426694
12.8766	12.6355	-0.000625914	0.00349102
12.8771	12.635	-0.00059984	0.00216444
12.8775	12.6345	0.00099573	0.00273485
12.878	12.634	-0.000135827	0.00359533
12.8785	12.6336	-0.000857787	0.00402095
12.8789	12.6331	-0.000620047	0.00331525
12.8794	12.6326	-0.000654522	0.00217534
12.8799	12.6322	0.000953515	0.00272535
12.8804	12.6317	-0.000130958	0.00364531
12.8808	12.6312	-0.000853185	0.00415173
12.8813	12.6308	-0.00060931	0.0033931
12.8818	12.6303	-0.000649653	0.00200564
12.8822	12.6298	0.000961719	0.00279106
12.8827	12.6293	-6.78047e-05	0.00367113
12.8832	12.6289	-0.000841182	0.00423236
12.8837	12.6284	-0.000562226	0.00338343
12.8841	12.6279	-0.000532352	0.00226703
12.8846	12.6275	0.000894231	0.00279713
12.8851	12.627	7.15755e-05	0.00371661
12.8856	12.6265	-0.000975623	0.00399572
12.886	12.626	-0.000441857	0.00331944
12.8865	12.6256	-0.000514678	0.0021646
12.887	12.6251	0.000945115	0.002785
12.8874	12.6246	1.60198e-05	0.00386403
12.8879	12.6241	-0.00098816	0.00412059
12.8884	12.6236	-0.000511146	0.00327026
12.8889	12.6232	-0.000496005	0.00211806
12.8893	12.6227	0.000893696	0.00287497
12.8898	12.6222	-8.00751e-05	0.00383665
12.8903	12.6218	-0.00106259	0.00405209
12.8907	12.6213	-0.000526484	0.00321217
12.8912	12.6208	-0.000422917	0.00220041
12.8917	12.6203	0.000775593	0.00286096
12.8922	12.6199	-9.05443e-05	0.00385952
12.8926	12.6194	-0.00114054	0.00401488
12.8931	12.6189	-0.000532281	0.00327477
12.8936	12.6185	-0.000420117	0.00222935
12.8941	12.618	0.000710175	0.00282408
12.8945	12.6175	-3.17116e-07	0.00381732
12.895	12.617	-0.00113261	0.0040071
12.8955	12.6166	-0.000425717	0.00321856
12.8959	12.6161	-0.000373835	0.00209299
12.8964	12.6156	0.000676163	0.00270527
12.8969	12.6151	5.18323e-05	0.00392802
12.8974	12.6147	-0.00121877	0.00409536
12.8978	12.6142	-0.000401443	0.00320987
12.8983	12.6137	-0.000345156	0.00221115
12.8988	12.6132	0.000635749	0.0028608
