# 1304     AichiSR QXAFS
# Start     : 8.9544
# End       : 9.0544
# Dir       : Backward
# Points    : 300
# ScanTime  : 1.01549
# Date      : 13.04.23 23:40
# Ring Cur. : 0.9[mA]
12.7557	12.6124	0.000946113	0.00244264
12.7562	12.6128	0.000133659	0.00324798
12.7566	12.6133	-0.000176438	0.00417009
12.7571	12.6137	-0.000989962	0.00354207
12.7576	12.6142	-0.000440324	0.00244157
12.7581	12.6147	0.000960988	0.00250287
12.7585	12.6152	2.08887e-05	0.00334966
12.759	12.6156	-0.000193042	0.00421212
12.7595	12.6161	-0.000803569	0.00361852
12.7599	12.6166	-0.000475334	0.00249697
12.7604	12.6171	0.000891895	0.00257653
12.7609	12.6175	0.000163337	0.00325453
12.7614	12.618	-0.000118153	0.00430087
12.7618	12.6185	-0.00084705	0.00371424
12.7623	12.619	-0.000378169	0.00251753
12.7628	12.6194	0.000978858	0.00255801
12.7632	12.6199	0.000105783	0.00337286
12.7637	12.6204	-0.000124823	0.00440567
12.7642	12.6208	-0.000872394	0.00354052
12.7647	12.6213	-0.000440056	0.00237848
12.7651	12.6218	0.000995463	0.00270092
12.7656	12.6223	1.14183e-05	0.00332304
12.7661	12.6227	-0.00023219	0.00428997
12.7666	12.6232	-0.000733816	0.00357788
12.767	12.6237	-0.000407579	0.0024923
12.7675	12.6241	0.00105121	0.00257793
12.768	12.6246	-6.4737e-05	0.00342923
12.7684	12.6251	-0.000282805	0.00412805
12.7689	12.6256	-0.000925542	0.00347094
12.7694	12.6261	-0.000515213	0.00227809
12.7699	12.6265	0.00104715	0.00253884
12.7703	12.627	0.000131858	0.00340571
12.7708	12.6275	-0.000269803	0.00431816
12.7713	12.628	-0.000726147	0.003517
12.7717	12.6284	-0.000448724	0.00225163
12.7722	12.6289	0.000950251	0.00262743
12.7727	12.6294	-1.23201e-05	0.00344866
12.7732	12.6298	-0.00040938	0.00420654
12.7736	12.6303	-0.000759891	0.00346283
12.7741	12.6308	-0.000617175	0.0022141
12.7746	12.6313	0.00110797	0.00262931
12.7751	12.6317	-2.35917e-05	0.00353601
12.7755	12.6322	-0.00040831	0.00425137
12.776	12.6326	-0.000692867	0.00347496
12.7765	12.6331	-0.000569627	0.00217083
12.7769	12.6336	0.00109236	0.00274903
12.7774	12.6341	5.85026e-05	0.00357928
12.7779	12.6345	-0.000553558	0.0041768
12.7784	12.635	-0.000622044	0.00342998
12.7788	12.6355	-0.000418583	0.0021769
12.7793	12.636	0.00104174	0.00273239
12.7798	12.6364	9.68823e-06	0.00347529
12.7802	12.6369	-0.000571161	0.00426662
12.7807	12.6374	-0.000634582	0.00350905
12.7812	12.6379	-0.0005883	0.00216756
12.7817	12.6383	0.00116012	0.00262931
12.7821	12.6388	4.55181e-06	0.00352667
12.7826	12.6393	-0.000595238	0.00421089
12.7831	12.6397	-0.000640985	0.00341613
12.7836	12.6402	-0.000497342	0.00216272
12.784	12.6407	0.00111744	0.00276116
12.7845	12.6411	-1.17851e-05	0.00360402
12.785	12.6416	-0.000622579	0.00415951
12.7854	12.6421	-0.000593169	0.0034784
12.7859	12.6425	-0.00070487	0.00216305
12.7864	12.643	0.00116038	0.00275198
12.7869	12.6434	-6.14019e-05	0.00361836
12.7873	12.6439	-0.000710274	0.00414255
12.7878	12.6444	-0.000558427	0.0033677
12.7883	12.6449	-0.000559961	0.00221378
12.7887	12.6454	0.00105401	0.00274731
12.7892	12.6458	-1.23201e-05	0.00367253
12.7897	12.6463	-0.000776763	0.00409429
12.7902	12.6468	-0.000384304	0.00340211
12.7906	12.6473	-0.00054102	0.0020707
12.7911	12.6478	0.000943313	0.00275525
12.7916	12.6482	3.24278e-05	0.00360779
12.7921	12.6487	-0.000809704	0.00417213
12.7925	12.6492	-0.000379703	0.00333656
12.793	12.6496	-0.00041498	0.00223434
12.7935	12.6501	0.00111924	0.0026947
12.7939	12.6506	2.7505e-06	0.003777
12.7944	12.6511	-0.00076929	0.00417524
12.7949	12.6515	-0.000378169	0.00341784
12.7954	12.652	-0.000419314	0.00210855
12.7958	12.6525	0.00104094	0.00276943
12.7963	12.6529	-1.58342e-06	0.00374119
12.7968	12.6534	-0.000814109	0.00403045
12.7972	12.6539	-0.000342624	0.00334934
12.7977	12.6544	-0.000509077	0.00219681
12.7982	12.6548	0.000933843	0.00283573
12.7987	12.6553	1.62873e-05	0.0038687
12.7991	12.6558	-0.000919407	0.00416435
12.7996	12.6563	-0.000400641	0.00329813
12.8001	12.6567	-0.000347225	0.00222795
12.8006	12.6572	0.000937178	0.00273313
12.801	12.6577	2.54901e-05	0.00382698
12.8015	12.6582	-0.00081097	0.00397875
12.802	12.6586	-0.000443391	0.00333656
12.8024	12.6591	-0.000395041	0.0022141
12.8029	12.6596	0.000830543	0.00285908
12.8034	12.66	2.80939e-05	0.00382838
12.8039	12.6605	-0.000934477	0.00412666
12.8043	12.661	-0.000320615	0.00332583
12.8048	12.6615	-0.000332155	0.00214232
12.8053	12.6619	0.000903969	0.00273329
12.8057	12.6624	0.000149532	0.00374694
12.8062	12.6629	-0.00103011	0.0041455
12.8067	12.6633	-0.000367432	0.00332304
12.8072	12.6638	-0.000235792	0.00214887
12.8076	12.6643	0.000875558	0.00275214
12.8081	12.6647	0.00012039	0.00379708
12.8086	12.6652	-0.000948281	0.00401316
12.8091	12.6657	-0.000287139	0.00317604
12.8095	12.6662	-0.000216584	0.00207849
12.81	12.6666	0.000874827	0.00280196
12.8105	12.6671	0.000167135	0.00388877
12.8109	12.6676	-0.00116408	0.0038687
12.8114	12.6681	-0.000302013	0.00313497
12.8119	12.6685	-0.000176705	0.00220648
12.8124	12.669	0.000659559	0.00280958
12.8128	12.6695	0.000200415	0.00391991
12.8133	12.6699	-0.00113261	0.00401365
12.8138	12.6704	-0.000267467	0.00325314
12.8142	12.6709	-0.000118688	0.00217706
12.8147	12.6713	0.0007986	0.00275665
12.8152	12.6718	0.00018481	0.00390606
12.8157	12.6723	-0.00116102	0.003895
12.8161	12.6727	-0.000296877	0.00304763
12.8166	12.6732	-9.84808e-05	0.00216272
12.8171	12.6737	0.00068583	0.00283482
12.8176	12.6741	0.00019708	0.00396646
12.818	12.6746	-0.00100783	0.00388164
12.8185	12.6751	-0.000311948	0.00321078
12.819	12.6756	6.13027e-05	0.00226515
12.8194	12.6761	0.000689165	0.00288136
12.8199	12.6765	0.00019041	0.00401816
12.8204	12.677	-0.00129086	0.00387911
12.8209	12.6775	-0.000204046	0.00309589
12.8213	12.678	-6.06706e-05	0.00226204
12.8218	12.6784	0.000729847	0.0029402
12.8223	12.6789	0.00010985	0.0039386
12.8227	12.6794	-0.00118295	0.00399121
12.8232	12.6798	-0.000218653	0.003099
12.8237	12.6803	1.48419e-06	0.0021129
12.8242	12.6808	0.00065469	0.00305385
12.8246	12.6813	9.24427e-05	0.00401751
12.8251	12.6818	-0.0013182	0.00398375
12.8256	12.6822	-0.00028894	0.00313465
12.8261	12.6827	5.0566e-05	0.00220615
12.8265	12.6831	0.000561128	0.00278467
12.827	12.6836	0.000243826	0.0040493
12.8275	12.6841	-0.00123771	0.00384379
12.8279	12.6846	-0.000119223	0.0030509
12.8284	12.685	-8.25365e-06	0.00218157
12.8289	12.6855	0.000497439	0.0029729
12.8294	12.686	0.000305446	0.00414845
12.8298	12.6865	-0.00138035	0.00385248
12.8303	12.687	-0.000174904	0.00287186
12.8308	12.6874	0.000145662	0.00217067
12.8312	12.6879	0.000470366	0.00308065
12.8317	12.6884	0.000337192	0.00414985
12.8322	12.6889	-0.00140129	0.00382822
12.8327	12.6893	-0.000263133	0.00298535
12.8331	12.6898	0.00013159	0.00223917
12.8336	12.6902	0.000550391	0.00297912
12.8341	12.6907	0.000262499	0.00428218
12.8346	12.6912	-0.00145191	0.00380003
12.835	12.6917	-0.000247528	0.00292635
12.8355	12.6921	0.000213417	0.00207554
12.836	12.6926	0.000394674	0.00297585
12.8364	12.693	0.000264033	0.00413149
12.8369	12.6935	-0.00129392	0.00366834
12.8374	12.694	-0.000112285	0.00285334
12.8379	12.6945	0.000244361	0.00221705
12.8383	12.6949	0.000361733	0.00293585
12.8388	12.6954	0.000288574	0.00430259
12.8393	12.6959	-0.00137935	0.0037988
12.8397	12.6964	-0.000211251	0.00281704
12.8402	12.6968	0.000332787	0.00231653
12.8407	12.6973	0.000285774	0.00299781
12.8412	12.6978	0.000260965	0.00417648
12.8416	12.6983	-0.00134074	0.00370538
12.8421	12.6987	-0.000268198	0.00289366
12.8426	12.6992	0.000292176	0.00225614
12.8431	12.6996	0.000343256	0.00289677
12.8435	12.7001	0.000274769	0.00434757
12.844	12.7006	-0.00129726	0.00380691
12.8445	12.7011	-0.000229122	0.00290627
12.8449	12.7015	0.000297313	0.00230424
12.8454	12.702	0.000333054	0.00302148
12.8459	12.7025	0.000301112	0.00428702
12.8464	12.7029	-0.00129139	0.00368703
12.8468	12.7034	-0.000214319	0.00286907
12.8473	12.7039	0.00041588	0.00235824
12.8478	12.7044	0.000210617	0.00310867
12.8482	12.7048	0.000304447	0.00420204
12.8487	12.7053	-0.00135121	0.003718
12.8492	12.7058	-0.000234258	0.00285973
12.8497	12.7063	0.000375733	0.00236077
12.8501	12.7068	0.000340456	0.00294691
12.8506	12.7073	0.000237156	0.00427145
12.8511	12.7077	-0.00113387	0.00364467
12.8516	12.7082	-0.000352362	0.00279745
12.852	12.7087	0.000530915	0.00229023
12.8525	12.7091	0.000200879	0.00322602
12.853	12.7096	0.000319517	0.00422957
12.8534	12.7101	-0.00137061	0.00371301
12.8539	12.7105	-0.000273067	0.002726
12.8544	12.711	0.000588201	0.00239889
12.8549	12.7115	0.000330254	0.00308295
12.8553	12.712	0.000170738	0.00435692
12.8558	12.7124	-0.00126325	0.00362566
12.8563	12.7129	-0.000345228	0.00267553
12.8567	12.7134	0.000688898	0.00239266
12.8572	12.7138	0.000171202	0.00312687
12.8577	12.7143	0.00014313	0.00428423
12.8582	12.7148	-0.00119522	0.00361074
12.8586	12.7153	-0.000204581	0.00267897
12.8591	12.7157	0.000644488	0.00230751
12.8596	12.7162	0.00024256	0.00315521
12.8601	12.7167	0.000157665	0.00427907
12.8605	12.7172	-0.00107866	0.00367768
12.861	12.7177	-0.000149631	0.00259661
12.8615	12.7181	0.000641885	0.00231374
12.8619	12.7186	0.000233357	0.00315194
12.8624	12.7191	8.25085e-05	0.00423564
12.8629	12.7195	-0.00110707	0.00353896
12.8634	12.72	-0.000327286	0.00255769
12.8638	12.7204	0.000781996	0.00232104
12.8643	12.7209	0.000172272	0.00333484
12.8648	12.7214	1.98899e-05	0.00422163
12.8652	12.7219	-0.00115741	0.00361885
12.8657	12.7223	-0.00028894	0.00267708
12.8662	12.7228	0.000813671	0.00245821
12.8667	12.7233	5.20998e-05	0.00325625
12.8671	12.7237	1.58235e-05	0.00429062
12.8676	12.7242	-0.00101757	0.00366786
12.8681	12.7247	-0.000313214	0.00253482
12.8686	12.7251	0.000745185	0.00247255
12.869	12.7256	0.000118856	0.00313481
12.8695	12.7261	-5.03978e-05	0.00425121
12.87	12.7266	-0.000972091	0.00366179
12.8704	12.727	-0.000365898	0.00246444
12.8709	12.7275	0.000712707	0.00252934
12.8714	12.728	7.79071e-05	0.00328051
12.8719	12.7285	-6.54684e-05	0.00418287
12.8723	12.7289	-0.00093701	0.00360623
12.8728	12.7294	-0.000439254	0.00250631
12.8733	12.7299	0.000870422	0.00257326
12.8737	12.7303	0.000117055	0.00321094
12.8742	12.7308	-0.000109949	0.00429931
12.8747	12.7313	-0.000892333	0.00367162
12.8752	12.7318	-0.000331887	0.00259334
12.8756	12.7322	0.000932309	0.00257138
12.8761	12.7327	0.000162534	0.00332287
12.8766	12.7332	-0.000140161	0.00430677
12.8771	12.7336	-0.000836046	0.00356264
12.8775	12.7341	-0.000310681	0.00257154
12.878	12.7346	0.000984459	0.00237634
12.8785	12.7351	7.59095e-05	0.00327526
12.8789	12.7356	-0.000179041	0.0042875
12.8794	12.736	-0.000824311	0.00354052
12.8799	12.7365	-0.000486802	0.00238208
12.8804	12.737	0.00101387	0.00254212
12.8808	12.7375	9.68478e-05	0.00342981
12.8813	12.738	-0.000266932	0.00423064
12.8818	12.7384	-0.000726878	0.00357649
12.8822	12.7389	-0.000480934	0.00233726
12.8827	12.7394	0.00101314	0.00258276
12.8832	12.7398	2.75589e-05	0.00337146
12.8837	12.7403	-0.000296075	0.00436454
12.8841	12.7408	-0.000727681	0.00363425
12.8846	12.7413	-0.000438255	0.00228539
12.8851	12.7417	0.00108776	0.00256096
12.8856	12.7422	-7.21386e-05	0.00342579
12.886	12.7426	-0.000425984	0.00430447
12.8865	12.7431	-0.000874124	0.00343964
12.887	12.7436	-0.000417317	0.0024501
12.8874	12.7441	0.00115732	0.00260719
12.8879	12.7445	7.73721e-05	0.00344292
12.8884	12.745	-0.000244995	0.00427112
12.8889	12.7455	-0.000806636	0.00354781
12.8893	12.746	-0.000505207	0.00233226
12.8898	12.7464	0.00117772	0.00255989
12.8903	12.7469	0.000111187	0.00327289
12.8907	12.7474	-0.000478134	0.00430054
12.8912	12.7479	-0.000679865	0.00352183
12.8917	12.7483	-0.000496005	0.00220615
12.8922	12.7488	0.00116652	0.00261841
12.8926	12.7493	-3.53272e-05	0.00349725
12.8931	12.7497	-0.000531282	0.00422909
12.8936	12.7502	-0.000555627	0.00350766
12.8941	12.7507	-0.000464793	0.00220164
12.8945	12.7511	0.00122634	0.00258743
12.895	12.7516	-2.09879e-05	0.00343948
12.8955	12.7521	-0.000468396	0.00424654
12.8959	12.7525	-0.000688265	0.00338466
12.8964	12.753	-0.000377366	0.00224164
12.8969	12.7535	0.00113557	0.00266388
12.8974	12.7539	3.44967e-05	0.00351872
12.8978	12.7544	-0.00053822	0.00419033
12.8983	12.7549	-0.000590102	0.00351201
12.8988	12.7554	-0.000563492	0.00225818
