# 1304     AichiSR QXAFS
# Start     : 8.9544
# End       : 9.0544
# Dir       : Forward
# Points    : 300
# ScanTime  : 1.01549
# Date      : 13.04.23 23:33
# Ring Cur. : 1[mA]
12.7557	12.7562	-0.000505742	0.00241118
12.7562	12.7557	0.000865624	0.00245698
12.7566	12.7553	-9.90158e-05	0.00344243
12.7571	12.7548	-0.000551025	0.00418942
12.7576	12.7543	-0.000905602	0.00363361
12.7581	12.7538	-0.000440591	0.00235357
12.7585	12.7534	0.00095685	0.00258743
12.759	12.7529	-4.47975e-05	0.0033895
12.7595	12.7525	-0.000600838	0.00417508
12.7599	12.752	-0.00101811	0.00366179
12.7604	12.7515	-0.000671661	0.00211478
12.7609	12.7511	0.000927173	0.0025658
12.7614	12.7506	-0.000141427	0.00351888
12.7618	12.7501	-0.000625914	0.0041732
12.7623	12.7496	-0.000782363	0.00343448
12.7628	12.7492	-0.000593437	0.00232185
12.7632	12.7487	0.000906502	0.00266651
12.7637	12.7483	-0.000171836	0.00355265
12.7642	12.7478	-0.000634047	0.00424842
12.7647	12.7473	-0.000743215	0.00338515
12.7651	12.7468	-0.000728144	0.00231948
12.7656	12.7464	0.00106782	0.00279541
12.7661	12.7459	-0.000243729	0.00349069
12.7666	12.7454	-0.000765223	0.00429963
12.767	12.7449	-0.000681399	0.00343808
12.7675	12.7444	-0.000551757	0.00217797
12.768	12.744	0.000940781	0.00264955
12.7684	12.7435	-0.000101548	0.00361041
12.7689	12.743	-0.000925274	0.00419065
12.7694	12.7426	-0.000678795	0.00339868
12.7699	12.7421	-0.000619244	0.00226392
12.7703	12.7416	0.000968853	0.00268691
12.7708	12.7412	-0.000108682	0.00363721
12.7713	12.7407	-0.000744553	0.00412354
12.7717	12.7402	-0.000733281	0.00334918
12.7722	12.7397	-0.000664795	0.00218345
12.7727	12.7393	0.000924908	0.00269641
12.7732	12.7388	-4.35312e-05	0.00372423
12.7736	12.7384	-0.000852115	0.00418926
12.7741	12.7379	-0.000484269	0.00331181
12.7746	12.7374	-0.000487069	0.00215231
12.7751	12.7369	0.000942047	0.00272519
12.7755	12.7364	-4.14624e-05	0.00370555
12.776	12.736	-0.000865456	0.00416902
12.7765	12.7355	-0.000645319	0.00323536
12.7769	12.735	-0.000598306	0.00223139
12.7774	12.7345	0.000989595	0.0027101
12.7779	12.734	-4.91854e-06	0.00378462
12.7784	12.7336	-0.00105438	0.00402439
12.7788	12.7331	-0.00060264	0.00331992
12.7793	12.7326	-0.000536686	0.00207865
12.7798	12.7322	0.000853621	0.00273813
12.7802	12.7317	-0.000111483	0.00384911
12.7807	12.7312	-0.00102651	0.0040974
12.7812	12.7307	-0.000590637	0.00324175
12.7817	12.7303	-0.000550223	0.00212584
12.7821	12.7298	0.000793999	0.00288866
12.7826	12.7293	-4.01961e-05	0.00383256
12.7831	12.7289	-0.000980491	0.00408527
12.7836	12.7284	-0.000474531	0.00330886
12.784	12.7279	-0.000441322	0.00226081
12.7845	12.7275	0.000793999	0.00276443
12.785	12.727	5.46325e-05	0.00389549
12.7854	12.7265	-0.00108893	0.00407093
12.7859	12.726	-0.000456393	0.00331402
12.7864	12.7256	-0.000345959	0.00217936
12.7869	12.7251	0.0007958	0.00291373
12.7873	12.7246	9.63128e-05	0.00387288
12.7878	12.7241	-0.00117809	0.00393843
12.7883	12.7236	-0.000448189	0.00308515
12.7887	12.7232	-0.00042058	0.00219853
12.7892	12.7227	0.000661557	0.00297585
12.7897	12.7223	-7.08723e-05	0.00389049
12.7902	12.7218	-0.00133154	0.00399931
12.7906	12.7213	-0.00050881	0.00317562
12.7911	12.7209	-0.000358229	0.00213175
12.7916	12.7204	0.000582601	0.00281909
12.7921	12.7199	2.2155e-05	0.00401209
12.7925	12.7194	-0.00121083	0.00388303
12.793	12.719	-0.000385838	0.00310507
12.7935	12.7185	-0.000235257	0.00223402
12.7939	12.7181	0.000544987	0.00276583
12.7944	12.7176	1.93549e-05	0.00392942
12.7949	12.7171	-0.00141103	0.00390451
12.7954	12.7166	-0.000341625	0.00314694
12.7958	12.7162	-0.000141427	0.00213658
12.7963	12.7157	0.000515113	0.00285957
12.7968	12.7152	-3.84854e-06	0.00407872
12.7972	12.7147	-0.00137422	0.00394654
12.7977	12.7142	-0.00040551	0.00300854
12.7982	12.7138	-0.000211715	0.0021492
12.7987	12.7133	0.000507177	0.00293553
12.7991	12.7128	2.06924e-05	0.00401365
12.7996	12.7124	-0.00150306	0.00382977
12.8001	12.7119	-0.00040658	0.00299313
12.8006	12.7114	-8.95455e-05	0.0021129
12.801	12.711	0.00045476	0.00283449
12.8015	12.7105	0.000273503	0.00401955
12.802	12.71	-0.00143963	0.00373604
12.8024	12.7095	-0.000390707	0.00303828
12.8029	12.7091	-1.25876e-05	0.00222484
12.8034	12.7086	0.000405411	0.00290128
12.8039	12.7081	9.57778e-05	0.00401316
12.8043	12.7077	-0.00152146	0.00373325
12.8048	12.7072	-0.000350293	0.00299469
12.8053	12.7067	3.77606e-05	0.00230472
12.8057	12.7062	0.000354064	0.00302615
12.8062	12.7057	0.000147196	0.00418115
12.8067	12.7053	-0.00143944	0.00382682
12.8072	12.7048	-0.000348759	0.0029511
12.8076	12.7043	6.46378e-05	0.00225786
12.8081	12.7038	0.000371667	0.00303812
12.8086	12.7033	0.000108583	0.00421884
12.8091	12.7029	-0.0015202	0.00373776
12.8095	12.7024	-0.000337024	0.0029293
12.81	12.7019	0.000210082	0.00230735
12.8105	12.7015	0.000271702	0.00292431
12.8109	12.701	0.000141596	0.00427923
12.8114	12.7005	-0.00147572	0.00367253
12.8119	12.7	-0.000390439	0.00297101
12.8124	12.6996	0.000166137	0.00222951
12.8128	12.6991	0.000316182	0.00289521
12.8133	12.6987	0.000133927	0.00422957
12.8138	12.6982	-0.0014417	0.00371268
12.8142	12.6977	-0.000390439	0.00284695
12.8147	12.6973	0.000279638	0.00238971
12.8152	12.6968	0.00014593	0.00293258
12.8157	12.6963	0.000324119	0.00432266
12.8161	12.6958	-0.00146551	0.0037471
12.8166	12.6954	-0.000389173	0.00290332
12.8171	12.6949	0.000196278	0.00229597
12.8176	12.6944	0.000247161	0.00299641
12.818	12.6939	0.00015153	0.00424466
12.8185	12.6935	-0.00148185	0.0037194
12.819	12.693	-0.000331887	0.00279901
12.8194	12.6925	0.000261697	0.00234267
12.8199	12.6921	6.07677e-05	0.00300887
12.8204	12.6916	0.000188145	0.00435584
12.8209	12.6911	-0.00136014	0.0036903
12.8213	12.6906	-0.000285605	0.00276803
12.8218	12.6902	0.00038367	0.00238487
12.8223	12.6897	0.000176873	0.00310179
12.8227	12.6892	1.0152e-05	0.00423564
12.8232	12.6888	-0.00143477	0.00374742
12.8237	12.6883	-0.000411913	0.00282064
12.8242	12.6879	0.000362732	0.00234611
12.8246	12.6874	-1.02513e-05	0.00314694
12.8251	12.6869	7.53745e-05	0.00424638
12.8256	12.6864	-0.00125585	0.00365589
12.8261	12.6859	-0.000485	0.00274231
12.8265	12.6855	0.000478302	0.00231874
12.827	12.685	4.13632e-05	0.00321496
12.8275	12.6845	4.44308e-05	0.00438166
12.8279	12.684	-0.0013282	0.00365712
12.8284	12.6835	-0.000480203	0.00276738
12.8289	12.6831	0.000526849	0.00236807
12.8294	12.6826	-4.56e-05	0.0030895
12.8298	12.6821	6.88811e-06	0.00440706
12.8303	12.6817	-0.00120423	0.00360574
12.8308	12.6812	-0.000600838	0.00269437
12.8312	12.6807	0.000680765	0.00245526
12.8317	12.6802	-8.77442e-05	0.00332754
12.8322	12.6798	-5.32691e-05	0.00431316
12.8327	12.6793	-0.00121516	0.00347824
12.8331	12.6788	-0.000480934	0.00266995
12.8336	12.6784	0.000577001	0.00245789
12.8341	12.6779	-7.95401e-05	0.00330886
12.8346	12.6774	-6.8536e-05	0.00433233
12.835	12.6769	-0.00127398	0.00358067
12.8355	12.6765	-0.000562226	0.00245681
12.836	12.676	0.000595603	0.0024828
12.8364	12.6755	-2.76582e-05	0.00321389
12.8369	12.675	-0.000275404	0.00422974
12.8374	12.6745	-0.00104418	0.00350691
12.8379	12.6741	-0.000539754	0.00256204
12.8383	12.6736	0.000714241	0.00246551
12.8388	12.6731	-0.000139162	0.00324084
12.8393	12.6727	-0.000182109	0.00428702
12.8397	12.6722	-0.00109326	0.00369261
12.8402	12.6717	-0.000475066	0.0024705
12.8407	12.6713	0.000732379	0.00249557
12.8412	12.6708	-6.37382e-05	0.00335696
12.8416	12.6703	-0.000340359	0.00426866
12.8421	12.6698	-0.0010155	0.00372391
12.8426	12.6694	-0.000570162	0.00244731
12.8431	12.6689	0.000777662	0.0026321
12.8435	12.6685	-9.92833e-05	0.00327633
12.844	12.668	-0.000381504	0.00422056
12.8445	12.6675	-0.000940612	0.00354879
12.8449	12.667	-0.000585768	0.00234177
12.8454	12.6666	0.000913903	0.00264971
12.8459	12.6661	-5.45354e-06	0.00319242
12.8464	12.6656	-0.000398108	0.00412494
12.8468	12.6651	-0.00078263	0.00350889
12.8473	12.6647	-0.000510611	0.00228556
12.8478	12.6642	0.000901366	0.00262587
12.8482	12.6637	-6.04031e-05	0.0035301
12.8487	12.6633	-0.000567897	0.00424621
12.8492	12.6628	-0.000810239	0.00360435
12.8497	12.6623	-0.000578099	0.00242117
12.8501	12.6619	0.000947183	0.00262775
12.8506	12.6614	5.0031e-05	0.00339433
12.8511	12.6609	-0.000490137	0.00420155
12.8516	12.6604	-0.000940612	0.00357837
12.852	12.66	-0.0005799	0.00235266
12.8525	12.6595	0.000938712	0.0027378
12.853	12.659	-2.94595e-05	0.00350487
12.8534	12.6586	-0.000631782	0.00425744
12.8539	12.6581	-0.000852383	0.0034566
12.8544	12.6576	-0.000578366	0.0023212
12.8549	12.6572	0.00104274	0.00271649
12.8553	12.6567	-0.000104349	0.00357182
12.8558	12.6562	-0.000582165	0.00416714
12.8563	12.6557	-0.000664527	0.00351093
12.8567	12.6552	-0.000652988	0.00225769
12.8572	12.6548	0.000865357	0.00263414
12.8577	12.6543	-0.00010895	0.00354035
12.8582	12.6538	-0.000693134	0.00417353
12.8586	12.6533	-0.000696202	0.00341473
12.8591	12.6529	-0.000661727	0.00215354
12.8596	12.6524	0.000972723	0.00275337
12.8601	12.6519	-0.000114354	0.00361804
12.8605	12.6515	-0.000765491	0.00414378
12.861	12.651	-0.000611111	0.00341317
12.8615	12.6505	-0.000676263	0.00225302
12.8619	12.65	0.000924176	0.00277517
12.8624	12.6496	-7.98076e-05	0.00362631
12.8629	12.6491	-0.000888463	0.00414657
12.8634	12.6486	-0.000688533	0.00338515
12.8638	12.6482	-0.000678064	0.00222795
12.8643	12.6477	0.000984191	0.00290423
12.8648	12.6472	-0.000131957	0.00362803
12.8652	12.6467	-0.000748084	0.00413911
12.8657	12.6462	-0.000608044	0.00346659
12.8662	12.6458	-0.000617247	0.00217018
12.8667	12.6453	0.000757723	0.00276304
12.8671	12.6448	-2.56605e-05	0.00375955
12.8676	12.6443	-0.000961354	0.00402095
12.8681	12.6439	-0.00059984	0.00341801
12.8686	12.6434	-0.000685465	0.00212069
12.869	12.6429	0.000887829	0.00274387
12.8695	12.6425	2.269e-05	0.00360918
12.87	12.642	-0.00108659	0.00409724
12.8704	12.6415	-0.00051828	0.00335524
12.8709	12.6411	-0.0005827	0.00215011
12.8714	12.6406	0.000791466	0.00277206
12.8719	12.6401	-0.000122754	0.00368343
12.8723	12.6396	-0.00115841	0.00405488
12.8728	12.6392	-0.000471731	0.00327338
12.8733	12.6387	-0.000522079	0.00227154
12.8737	12.6383	0.000823141	0.00279278
12.8742	12.6378	-6.98735e-05	0.00371612
12.8747	12.6373	-0.00111347	0.00403078
12.8752	12.6368	-0.000470465	0.00337753
12.8756	12.6364	-0.000422649	0.00223262
12.8761	12.6359	0.000823676	0.00273968
12.8766	12.6354	-4.65104e-06	0.00378618
12.8771	12.6349	-0.00116435	0.0040588
12.8775	12.6345	-0.000447458	0.00320643
12.878	12.634	-0.000527751	0.00220508
12.8785	12.6335	0.000702702	0.00278795
12.8789	12.633	8.86437e-05	0.00374914
12.8794	12.6326	-0.00112007	0.00398326
12.8799	12.6321	-0.000397306	0.00319521
12.8804	12.6317	-0.000455394	0.00219821
12.8808	12.6312	0.00063088	0.00281909
12.8813	12.6307	-2.35917e-05	0.00389066
12.8818	12.6302	-0.00109146	0.00399014
12.8822	12.6298	-0.000371302	0.00329206
12.8827	12.6293	-0.000225519	0.0021551
12.8832	12.6288	0.000691769	0.00284088
12.8837	12.6284	1.88199e-05	0.0039118
12.8841	12.6279	-0.001319	0.00402063
12.8846	12.6274	-0.000395576	0.00325265
12.8851	12.6269	-0.000322684	0.00218951
12.8856	12.6265	0.000606339	0.00285334
12.886	12.626	3.74931e-06	0.00390639
12.8865	12.6255	-0.00134047	0.00394327
12.887	12.625	-0.000456661	0.00305836
12.8874	12.6245	-0.000203315	0.00213765
12.8879	12.624	0.000537853	0.00294831
12.8884	12.6236	-6.45235e-06	0.00395712
12.8889	12.6231	-0.00141743	0.00390918
12.8893	12.6226	-0.000424986	0.00303549
12.8898	12.6222	-0.000126624	0.00214372
12.8903	12.6217	0.000509246	0.00291808
12.8907	12.6212	0.00014486	0.00403448
12.8912	12.6207	-0.0013238	0.00387476
12.8917	12.6203	-0.000431121	0.00300001
12.8922	12.6198	-0.000178239	0.00216632
12.8926	12.6193	0.000460895	0.00289677
12.8931	12.6189	7.17718e-05	0.00421712
12.8936	12.6184	-0.00144557	0.00385361
12.8941	12.6179	-0.000377438	0.00303329
12.8945	12.6175	1.16858e-05	0.00220288
12.895	12.617	0.000405143	0.00293365
12.8955	12.6165	7.0773e-05	0.00408961
12.8959	12.616	-0.00147058	0.00380782
12.8964	12.6156	-0.000392508	0.00302255
12.8969	12.6151	-2.51255e-05	0.0022359
12.8974	12.6146	0.000289109	0.00298068
12.8978	12.6141	5.41687e-05	0.00424342
12.8983	12.6136	-0.00151786	0.00381077
12.8988	12.6132	-0.00037717	0.00300838
