# 1304     AichiSR QXAFS
# Start     : 8.9544
# End       : 9.0544
# Dir       : Forward
# Points    : 300
# ScanTime  : 1.01549
# Date      : 13.04.23 23:57
# Ring Cur. : 1[mA]
12.7557	12.7563	6.3104e-05	0.00369588
12.7562	12.7558	-0.000819709	0.00401521
12.7566	12.7553	-0.000452523	0.00337908
12.7571	12.7549	-0.000433386	0.00215633
12.7576	12.7544	0.000994196	0.0027705
12.7581	12.7539	0.000140329	0.00379397
12.7585	12.7534	-0.000793634	0.00405037
12.759	12.753	-0.000359032	0.00335245
12.7595	12.7525	-0.000419849	0.00223278
12.7599	12.7521	0.000939711	0.00275525
12.7604	12.7516	0.000110385	0.00372686
12.7609	12.7511	-0.000845249	0.00402455
12.7614	12.7506	-0.000362831	0.0032883
12.7618	12.7502	-0.00031275	0.00208488
12.7623	12.7497	0.00086582	0.00273362
12.7628	12.7492	0.000168937	0.00385624
12.7632	12.7488	-0.000885128	0.00407855
12.7637	12.7483	-0.00038944	0.00330215
12.7642	12.7479	-0.00034669	0.00213953
12.7647	12.7474	0.000974524	0.00282236
12.7651	12.7469	4.10957e-05	0.00384207
12.7656	12.7464	-0.00100756	0.00401316
12.7661	12.746	-0.000266201	0.0031077
12.7666	12.7455	-0.000238592	0.002225
12.767	12.745	0.000843348	0.0029461
12.7675	12.7445	0.000128255	0.00382076
12.768	12.744	-0.000991228	0.00395089
12.7684	12.7436	-0.000248794	0.00322168
12.7689	12.7431	-0.000304279	0.00226097
12.7694	12.7426	0.000828742	0.00286719
12.7699	12.7422	8.17772e-05	0.00388303
12.7703	12.7417	-0.00109146	0.00378758
12.7708	12.7412	-0.000335222	0.00316251
12.7713	12.7408	-0.000352629	0.00209782
12.7717	12.7403	0.000703504	0.0028871
12.7722	12.7398	0.000150264	0.00397457
12.7727	12.7393	-0.00115435	0.00388877
12.7732	12.7389	-0.000288405	0.00313744
12.7736	12.7384	-6.70733e-05	0.00211027
12.7741	12.7379	0.000766925	0.00282499
12.7746	12.7375	0.000164335	0.00388894
12.7751	12.737	-0.00117789	0.00387836
12.7755	12.7365	-0.000317619	0.00309466
12.776	12.736	-6.57359e-05	0.00218951
12.7765	12.7355	0.000626546	0.00289382
12.7769	12.7351	0.000200148	0.00397129
12.7774	12.7346	-0.00115642	0.00387213
12.7779	12.7341	-0.000250595	0.00309138
12.7784	12.7336	-9.66795e-05	0.00223852
12.7788	12.7332	0.00056473	0.00289972
12.7793	12.7327	0.000265567	0.00404103
12.7798	12.7322	-0.00131846	0.00382215
12.7802	12.7318	-0.000259263	0.00304296
12.7807	12.7313	6.64391e-05	0.00219526
12.7812	12.7308	0.000554725	0.0028113
12.7817	12.7303	0.000247161	0.0040924
12.7821	12.7298	-0.0013282	0.00384255
12.7826	12.7294	-0.000305277	0.00290767
12.7831	12.7289	0.000111455	0.00213888
12.7836	12.7285	0.000587666	0.00290472
12.784	12.728	0.000291374	0.00396179
12.7845	12.7275	-0.0013272	0.00387009
12.785	12.727	-0.000157033	0.00302878
12.7854	12.7266	2.04249e-05	0.00225941
12.7859	12.7261	0.000459361	0.00291406
12.7864	12.7256	0.000244093	0.00415624
12.7869	12.7251	-0.00145018	0.00372562
12.7873	12.7247	-0.000375101	0.00302272
12.7878	12.7242	0.000248695	0.00226859
12.7883	12.7237	0.000471364	0.00289505
12.7887	12.7232	0.000300844	0.00407077
12.7892	12.7228	-0.00139362	0.00376471
12.7897	12.7223	-0.000183108	0.00297166
12.7902	12.7219	0.000190143	0.00223541
12.7906	12.7214	0.000454492	0.00292635
12.7911	12.7209	0.000223155	0.00415672
12.7916	12.7204	-0.00141356	0.00374431
12.7921	12.72	-0.000281806	0.00284539
12.7925	12.7195	0.000202413	0.00220975
12.793	12.719	0.000386737	0.00301337
12.7935	12.7186	0.000292444	0.00425277
12.7939	12.7181	-0.00131386	0.00382076
12.7944	12.7177	-0.000265933	0.00283884
12.7949	12.7172	0.00037807	0.00227154
12.7954	12.7167	0.00033432	0.00293209
12.7958	12.7162	0.000283437	0.00432143
12.7963	12.7157	-0.0013246	0.00372562
12.7968	12.7153	-0.000106417	0.00283122
12.7972	12.7148	0.000408478	0.00227884
12.7977	12.7143	0.000262767	0.00292307
12.7982	12.7138	0.000282439	0.00430709
12.7987	12.7134	-0.00131386	0.0036132
12.7991	12.7129	-0.00018671	0.0028054
12.7996	12.7124	0.00042815	0.00235127
12.8001	12.712	0.000344058	0.00289505
12.8006	12.7115	0.000258896	0.00421073
12.801	12.711	-0.00124384	0.00361213
12.8015	12.7105	-0.000303012	0.00285908
12.802	12.7101	0.000592535	0.00222516
12.8024	12.7096	0.000306444	0.0030618
12.8029	12.7091	0.00032765	0.00430135
12.8034	12.7087	-0.00121903	0.00358411
12.8039	12.7082	-0.000267735	0.00275837
12.8043	12.7077	0.000559861	0.00229457
12.8048	12.7072	0.000205213	0.00309401
12.8053	12.7068	0.000263765	0.00431037
12.8057	12.7063	-0.00116942	0.00355158
12.8062	12.7058	-0.000283608	0.00263382
12.8067	12.7053	0.000459361	0.00234971
12.8072	12.7048	0.000102181	0.00317218
12.8076	12.7044	0.000281172	0.00416386
12.8081	12.7039	-0.00126325	0.00358459
12.8086	12.7034	-0.000394238	0.00270216
12.8091	12.7029	0.000551122	0.00226515
12.8095	12.7025	0.000155132	0.00314555
12.81	12.702	9.50465e-05	0.00433963
12.8105	12.7016	-0.00113287	0.00359689
12.8109	12.7011	-0.000241927	0.00262898
12.8114	12.7006	0.000717844	0.0023489
12.8119	12.7001	0.000150264	0.00321717
12.8124	12.6997	0.000177872	0.0041827
12.8128	12.6992	-0.0011234	0.00357928
12.8133	12.6987	-0.000283608	0.00267741
12.8138	12.6983	0.000723176	0.00234316
12.8142	12.6978	0.000164603	0.00311285
12.8147	12.6973	0.000118054	0.00434199
12.8152	12.6968	-0.00116662	0.00355576
12.8157	12.6964	-0.000437452	0.00271773
12.8161	12.6959	0.000891431	0.00240823
12.8166	12.6954	0.000171737	0.00322044
12.8171	12.6949	7.61942e-06	0.0042263
12.8176	12.6945	-0.000932943	0.00359812
12.818	12.694	-0.000394238	0.00254507
12.8185	12.6935	0.000778126	0.00238627
12.819	12.6931	-3.37934e-05	0.00329624
12.8194	12.6926	-4.57963e-05	0.00426399
12.8199	12.6921	-0.000853917	0.0036445
12.8204	12.6917	-0.000294808	0.00252687
12.8209	12.6912	0.000848949	0.0024537
12.8213	12.6907	-2.15229e-05	0.00316407
12.8218	12.6902	-0.000139162	0.00420778
12.8223	12.6898	-0.000904604	0.00349692
12.8227	12.6893	-0.000351827	0.00248468
12.8232	12.6889	0.000867889	0.00251147
12.8237	12.6884	0.000109118	0.00329329
12.8242	12.6879	-4.9934e-05	0.00429341
12.8246	12.6874	-0.00091814	0.00359345
12.8251	12.687	-0.000438255	0.00239921
12.8256	12.6865	0.001008	0.0023961
12.8261	12.686	9.42073e-06	0.00343169
12.8265	12.6855	-0.000320687	0.00421508
12.827	12.685	-0.000812771	0.00364327
12.8275	12.6846	-0.000341357	0.00243067
12.8279	12.6841	0.00102414	0.0026103
12.8284	12.6836	3.95619e-05	0.00328223
12.8289	12.6831	-0.000243461	0.00432922
12.8294	12.6827	-0.000739149	0.00351249
12.8298	12.6822	-0.000521348	0.0022395
12.8303	12.6818	0.000989328	0.00254351
12.8308	12.6813	-1.84553e-05	0.00332942
12.8312	12.6808	-0.000278204	0.00421696
12.8317	12.6803	-0.000829911	0.00345907
12.8322	12.6798	-0.000357694	0.00230596
12.8327	12.6794	0.00101774	0.00262931
12.8331	12.6789	6.59041e-05	0.00342874
12.8336	12.6784	-0.000367967	0.00418319
12.8341	12.678	-0.000731212	0.00337581
12.8346	12.6775	-0.000440056	0.00228604
12.835	12.677	0.00116472	0.00259817
12.8355	12.6765	1.14183e-05	0.00342735
12.836	12.6761	-0.000519279	0.00429341
12.8364	12.6756	-0.000668593	0.00352323
12.8369	12.6751	-0.000465596	0.00219853
12.8374	12.6746	0.00111077	0.0026402
12.8379	12.6741	0.000114451	0.00341441
12.8383	12.6737	-0.000545158	0.00418754
12.8388	12.6732	-0.000732478	0.00348635
12.8393	12.6727	-0.000443124	0.00214994
12.8397	12.6723	0.00103868	0.00260005
12.8402	12.6718	-4.63313e-05	0.00348667
12.8407	12.6713	-0.000494471	0.00408355
12.8412	12.6709	-0.000588568	0.00341285
12.8416	12.6704	-0.000489673	0.00217378
12.8421	12.6699	0.00113124	0.00268503
12.8426	12.6695	2.11562e-05	0.00338998
12.8431	12.669	-0.00063205	0.00413739
12.8435	12.6685	-0.000616444	0.00349848
12.844	12.6681	-0.000555092	0.00222312
12.8445	12.6676	0.00108289	0.00258432
12.8449	12.6671	7.48395e-05	0.00341752
12.8454	12.6666	-0.000501141	0.00420966
12.8459	12.6662	-0.000606439	0.00340416
12.8464	12.6657	-0.000540021	0.00207537
12.8468	12.6652	0.000970922	0.00275697
12.8473	12.6647	9.15323e-06	0.00367253
12.8478	12.6643	-0.000683664	0.00424326
12.8482	12.6638	-0.000650455	0.00336163
12.8487	12.6633	-0.000508079	0.00221909
12.8492	12.6629	0.00109616	0.00258464
12.8497	12.6624	-4.91854e-06	0.00367113
12.8501	12.6619	-0.000694133	0.0041201
12.8506	12.6615	-0.000456661	0.00334
12.8511	12.661	-0.000541287	0.00207119
12.8516	12.6605	0.000994928	0.00268396
12.852	12.66	1.22208e-05	0.00367908
12.8525	12.6596	-0.000784895	0.00412494
12.853	12.6591	-0.000553825	0.00334762
12.8534	12.6586	-0.0004794	0.00210855
12.8539	12.6582	0.00088963	0.00273018
12.8544	12.6577	4.74984e-05	0.00362598
12.8549	12.6572	-0.000811238	0.00411125
12.8553	12.6567	-0.00040551	0.0034158
12.8558	12.6563	-0.000356963	0.00214699
12.8563	12.6558	0.000968122	0.00274779
12.8567	12.6553	4.46983e-05	0.00370587
12.8572	12.6548	-0.000891798	0.0040012
12.8577	12.6543	-0.000361297	0.00327756
12.8582	12.6539	-0.000348295	0.00220492
12.8586	12.6534	0.00105528	0.00279294
12.8591	12.6529	2.28669e-06	0.00375053
12.8596	12.6525	-0.000842181	0.00403808
12.8601	12.652	-0.000355964	0.00332599
12.8605	12.6515	-0.000371035	0.00209561
12.861	12.6511	0.00089243	0.00283138
12.8615	12.6506	0.000179406	0.00370555
12.8619	12.6501	-0.000913271	0.00401521
12.8624	12.6496	-0.000285338	0.00316219
12.8629	12.6492	-0.000332155	0.00203554
12.8634	12.6487	0.000855084	0.00282032
12.8638	12.6482	3.44255e-05	0.00363361
12.8643	12.6477	-0.00102597	0.0040756
12.8648	12.6473	-0.000231191	0.00316735
12.8652	12.6468	-0.000240126	0.00209545
12.8657	12.6463	0.000762592	0.00283744
12.8662	12.6458	6.49053e-05	0.00378183
12.8667	12.6454	-0.00112981	0.00392818
12.8671	12.6449	-0.000200515	0.00332164
12.8676	12.6444	-0.000286408	0.00217206
12.8681	12.6439	0.000797869	0.00282515
12.8686	12.6435	6.05002e-05	0.00378602
12.869	12.643	-0.00114741	0.00386386
12.8695	12.6425	-0.000274869	0.00323429
12.87	12.6421	-0.00021505	0.00211011
12.8704	12.6416	0.000846951	0.00293832
12.8709	12.6411	0.000107852	0.00392147
12.8714	12.6407	-0.00114588	0.00394236
12.8719	12.6402	-0.000348028	0.00310024
12.8723	12.6397	-0.000124823	0.00213609
12.8728	12.6393	0.000692036	0.00279761
12.8733	12.6388	0.000141061	0.00386558
12.8737	12.6383	-0.00115715	0.00384116
12.8742	12.6379	-0.00028894	0.00312998
12.8747	12.6374	-0.000100817	0.0021093
12.8752	12.6369	0.000695033	0.00284228
12.8756	12.6364	0.000233892	0.00389377
12.8761	12.636	-0.001106	0.00389484
12.8766	12.6355	-0.000265666	0.0030632
12.8771	12.635	-4.78652e-05	0.00211027
12.8775	12.6345	0.000651355	0.00292635
12.878	12.6341	0.000190678	0.00398514
12.8785	12.6336	-0.00123924	0.00386
12.8789	12.6331	-0.000289208	0.00310491
12.8794	12.6326	9.5314e-05	0.00215542
12.8799	12.6322	0.00048977	0.00293413
12.8804	12.6317	0.000239224	0.00405364
12.8808	12.6313	-0.00134301	0.0037915
12.8813	12.6308	-0.000350025	0.00299657
12.8818	12.6303	9.17113e-05	0.00216305
12.8822	12.6298	0.000591269	0.00290128
12.8827	12.6294	0.000181207	0.00404774
12.8832	12.6289	-0.00119323	0.00379987
12.8837	12.6284	-0.000235525	0.00291438
12.8841	12.628	0.000147196	0.00212396
12.8846	12.6275	0.000600739	0.00288399
12.8851	12.627	0.000290643	0.0041178
12.8856	12.6265	-0.001308	0.00377652
12.886	12.626	-0.000307614	0.00298331
12.8865	12.6256	0.000216752	0.00221705
12.887	12.6251	0.000539922	0.00285039
12.8874	12.6246	0.000225688	0.00413009
12.8879	12.6241	-0.0013108	0.00379397
12.8884	12.6236	-0.000152699	0.00298396
12.8889	12.6232	0.000364533	0.00218796
12.8893	12.6227	0.000337923	0.00298675
12.8898	12.6222	0.000258165	0.00411281
12.8903	12.6218	-0.00137575	0.00382183
12.8907	12.6213	-0.000185444	0.00290627
12.8912	12.6208	0.000394406	0.0022359
12.8917	12.6203	0.000417414	0.00301649
12.8922	12.6199	0.000348927	0.00417213
12.8926	12.6194	-0.00133921	0.00370694
12.8931	12.6189	-0.000209717	0.0028776
12.8936	12.6185	0.000293175	0.00217764
12.8941	12.618	0.000290375	0.0029293
12.8945	12.6175	0.000346395	0.00429029
12.895	12.617	-0.00137241	0.00362926
12.8955	12.6166	-0.000273602	0.00282311
12.8959	12.6161	0.000465497	0.00218624
12.8964	12.6156	0.000405678	0.00302116
12.8969	12.6151	0.000243291	0.00427112
12.8974	12.6147	-0.00126731	0.00361229
12.8978	12.6142	-0.000295076	0.0027895
12.8983	12.6137	0.000524049	0.00239126
12.8988	12.6133	0.000295244	0.00307082
