# 1304     AichiSR QXAFS
# Start     : 8.9544
# End       : 9.0544
# Dir       : Forward
# Points    : 300
# ScanTime  : 1.01549
# Date      : 13.04.23 23:27
# Ring Cur. : 1[mA]
12.7557	12.7562	-0.00131693	0.00388099
12.7562	12.7557	-0.000437987	0.00311146
12.7566	12.7553	-0.000260797	0.00212987
12.7571	12.7548	0.000475234	0.00273952
12.7576	12.7543	-6.34707e-05	0.0039154
12.7581	12.7538	-0.00140769	0.00378758
12.7585	12.7534	-0.000373567	0.00297338
12.759	12.7529	-0.000148365	0.00215494
12.7595	12.7524	0.000398277	0.00294503
12.7599	12.752	2.42238e-05	0.00401472
12.7604	12.7515	-0.00141383	0.0037893
12.7609	12.751	-0.000428321	0.00305074
12.7614	12.7506	-0.000144228	0.00210651
12.7618	12.7501	0.000461163	0.00286563
12.7623	12.7496	6.92392e-05	0.00396662
12.7628	12.7492	-0.00148338	0.0037784
12.7632	12.7487	-0.000470732	0.00303066
12.7637	12.7482	9.68823e-06	0.0022527
12.7642	12.7478	0.000479301	0.00275542
12.7647	12.7473	6.87042e-05	0.00393597
12.7651	12.7468	-0.0014159	0.00376798
12.7656	12.7463	-0.000411913	0.00291111
12.7661	12.7459	-3.43284e-05	0.00215821
12.7666	12.7454	0.000388806	0.00278983
12.767	12.7449	7.20393e-05	0.00411748
12.7675	12.7444	-0.00145804	0.00373776
12.768	12.744	-0.000351095	0.00295609
12.7684	12.7435	-2.9727e-05	0.00214887
12.7689	12.743	0.000417681	0.00288587
12.7694	12.7426	0.00014873	0.00410346
12.7699	12.7421	-0.00148645	0.0038528
12.7703	12.7416	-0.000323219	0.00296715
12.7708	12.7412	8.48448e-05	0.00219837
12.7713	12.7407	0.000253296	0.0028608
12.7717	12.7402	0.000164068	0.00412805
12.7722	12.7397	-0.0014315	0.00372202
12.7727	12.7393	-0.000474799	0.00286719
12.7732	12.7388	0.000120122	0.00217158
12.7736	12.7383	0.000314916	0.00302239
12.7741	12.7379	0.000192211	0.00415484
12.7746	12.7374	-0.00153247	0.00373685
12.7751	12.7369	-0.000452862	0.00297789
12.7755	12.7364	4.3432e-05	0.00210356
12.776	12.736	0.000166137	0.00292168
12.7765	12.7355	0.000189875	0.00409429
12.7769	12.735	-0.00151226	0.00380363
12.7774	12.7345	-0.000421115	0.00292667
12.7779	12.734	0.000189875	0.00220041
12.7784	12.7335	0.000187075	0.00289661
12.7788	12.7331	0.000212151	0.00412575
12.7793	12.7326	-0.00147671	0.00382961
12.7798	12.7321	-0.000422382	0.00288308
12.7802	12.7317	0.000133927	0.00221115
12.7807	12.7312	0.00018481	0.00297273
12.7812	12.7307	0.000152332	0.00421744
12.7817	12.7302	-0.00156774	0.00365573
12.7821	12.7298	-0.000474799	0.00277565
12.7826	12.7293	0.000156934	0.00219075
12.7831	12.7288	0.000255097	0.00294503
12.7836	12.7284	0.000274234	0.00423129
12.784	12.7279	-0.00145957	0.00385485
12.7845	12.7274	-0.000345691	0.00275246
12.785	12.727	0.000308781	0.00238611
12.7854	12.7265	0.00022542	0.00297773
12.7859	12.726	0.000198882	0.00415157
12.7864	12.7255	-0.00134607	0.00356854
12.7869	12.7251	-0.000264667	0.00279573
12.7873	12.7246	0.000315647	0.0022826
12.7878	12.7241	0.000120586	0.00300838
12.7883	12.7236	0.000107584	0.00422737
12.7887	12.7232	-0.00147211	0.00352339
12.7892	12.7227	-0.000492206	0.00278344
12.7897	12.7222	0.000303912	0.00225614
12.7902	12.7218	3.4693e-05	0.00298396
12.7906	12.7213	0.000248695	0.0042095
12.7911	12.7208	-0.00146931	0.00363377
12.7916	12.7204	-0.000321953	0.00278623
12.7921	12.7199	0.000315915	0.00229055
12.7925	12.7194	0.000103447	0.00295094
12.793	12.719	0.000155667	0.00427472
12.7935	12.7185	-0.00146858	0.00368375
12.7939	12.718	-0.000453058	0.00266946
12.7944	12.7176	0.00041028	0.00218656
12.7949	12.7171	6.41028e-05	0.00302427
12.7954	12.7166	9.75791e-05	0.00423892
12.7958	12.7161	-0.00139902	0.00369277
12.7963	12.7157	-0.00040271	0.00257653
12.7968	12.7152	0.000454225	0.00232947
12.7972	12.7147	-1.7724e-05	0.00311146
12.7977	12.7142	7.5107e-05	0.00427628
12.7982	12.7137	-0.00137882	0.00347078
12.7987	12.7133	-0.000398376	0.00266528
12.7991	12.7128	0.000444023	0.00231186
12.7996	12.7123	-1.04843e-06	0.00309852
12.8001	12.7119	0.000104784	0.00424449
12.8006	12.7114	-0.00128292	0.00354519
12.801	12.7109	-0.000463063	0.00264627
12.8015	12.7105	0.000465497	0.00241773
12.802	12.71	2.50263e-05	0.00311162
12.8024	12.7095	8.66461e-05	0.00417836
12.8029	12.7091	-0.00131233	0.00370334
12.8034	12.7086	-0.000514678	0.00251721
12.8039	12.7081	0.000627081	0.00234751
12.8043	12.7076	1.22208e-05	0.00310974
12.8048	12.7072	-0.000174172	0.00427972
12.8053	12.7067	-0.0012239	0.00358288
12.8057	12.7062	-0.000455394	0.00255007
12.8062	12.7057	0.000533983	0.00235545
12.8067	12.7052	-3.91973e-05	0.00326699
12.8072	12.7047	-0.000147295	0.00425604
12.8076	12.7043	-0.00130619	0.00350675
12.8081	12.7038	-0.000489673	0.00251254
12.8086	12.7033	0.000655689	0.00238815
12.8091	12.7029	-2.76582e-05	0.00314415
12.8095	12.7024	-0.000109217	0.0042408
12.81	12.7019	-0.00120757	0.00360698
12.8105	12.7015	-0.000542019	0.00254883
12.8109	12.701	0.000667228	0.00236759
12.8114	12.7005	1.73573e-05	0.00316874
12.8119	12.7	-0.000210716	0.00424842
12.8124	12.6996	-0.00114054	0.00359501
12.8128	12.6991	-0.000427518	0.00245665
12.8133	12.6987	0.00062528	0.00252311
12.8138	12.6982	4.72309e-05	0.00331026
12.8142	12.6977	-0.000127623	0.00428423
12.8147	12.6972	-0.00108479	0.00357756
12.8152	12.6968	-0.000518815	0.00253401
12.8157	12.6963	0.00076359	0.00261341
12.8161	12.6958	-0.00010228	0.00316439
12.8166	12.6953	-0.000251862	0.00432283
12.8171	12.6949	-0.00122157	0.0035855
12.8176	12.6944	-0.000484002	0.0024828
12.818	12.6939	0.000756189	0.00243518
12.8185	12.6934	-7.54737e-05	0.00326044
12.819	12.693	-0.000341357	0.00415017
12.8194	12.6925	-0.00100937	0.00369432
12.8199	12.6921	-0.000661192	0.00241945
12.8204	12.6916	0.000858686	0.00233833
12.8209	12.6911	-7.52062e-05	0.00326215
12.8213	12.6906	-0.000346494	0.00415329
12.8218	12.6902	-0.00103344	0.00350659
12.8223	12.6897	-0.000464062	0.00236168
12.8227	12.6892	0.000733645	0.00260735
12.8232	12.6888	-9.00093e-05	0.00320455
12.8237	12.6883	-0.000316549	0.00419049
12.8242	12.6878	-0.00107359	0.00347201
12.8246	12.6874	-0.000496005	0.00241601
12.8251	12.6869	0.000870957	0.00261234
12.8256	12.6864	-0.000179041	0.00337253
12.8261	12.6859	-0.000366433	0.0042059
12.8265	12.6854	-0.000996097	0.00352216
12.827	12.685	-0.000563028	0.00240978
12.8275	12.6845	0.000896764	0.00248623
12.8279	12.684	-0.000139162	0.00334435
12.8284	12.6835	-0.000394042	0.00426506
12.8289	12.6831	-0.00103417	0.00359812
12.8294	12.6826	-0.000648921	0.0023103
12.8298	12.6821	0.000955851	0.00248189
12.8303	12.6817	-0.00018004	0.00337425
12.8308	12.6812	-0.000558694	0.00417771
12.8312	12.6807	-0.000842449	0.00352216
12.8317	12.6802	-0.000609042	0.00233382
12.8322	12.6798	0.000976522	0.00252237
12.8327	12.6793	-0.00011175	0.00345038
12.8331	12.6788	-0.000551025	0.00424187
12.8336	12.6784	-0.000941415	0.00345972
12.8341	12.6779	-0.000702872	0.00232571
12.8346	12.6774	0.00102487	0.00267225
12.835	12.6769	-0.000119687	0.0033699
12.8355	12.6764	-0.000557892	0.00420155
12.836	12.676	-0.000868791	0.00338204
12.8364	12.6755	-0.000559158	0.00216428
12.8369	12.675	0.000974524	0.00248919
12.8374	12.6745	-0.000178774	0.00345505
12.8379	12.674	-0.000513411	0.00408323
12.8383	12.6736	-0.00086979	0.00345988
12.8388	12.6731	-0.000658659	0.00222672
12.8393	12.6726	0.00102387	0.0026307
12.8397	12.6722	-0.000106417	0.00330838
12.8402	12.6717	-0.000645586	0.00418163
12.8407	12.6713	-0.000835315	0.00345521
12.8412	12.6708	-0.000692403	0.00223106
12.8416	12.6703	0.000983192	0.00268535
12.8421	12.6698	-0.000118955	0.00355125
12.8426	12.6694	-0.000660193	0.00396367
12.8431	12.6689	-0.000760889	0.00339884
12.8435	12.6685	-0.000729482	0.00212879
12.844	12.668	0.000983192	0.00271977
12.8445	12.6675	-0.000222184	0.00349446
12.8449	12.667	-0.000754219	0.00427751
12.8454	12.6666	-0.000768558	0.0033976
12.8459	12.6661	-0.000670395	0.00214076
12.8464	12.6656	0.000872758	0.00261513
12.8468	12.6651	-0.00014783	0.00357305
12.8473	12.6646	-0.000717675	0.00419704
12.8478	12.6642	-0.000640985	0.00337286
12.8482	12.6637	-0.000642519	0.00216756
12.8487	12.6632	0.000951785	0.00269142
12.8492	12.6628	-0.000139894	0.00359361
12.8497	12.6623	-0.000837312	0.00395556
12.8501	12.6619	-0.000709739	0.0033713
12.8506	12.6614	-0.000589103	0.00218001
12.8511	12.6609	0.000927975	0.00273641
12.8516	12.6604	-6.75372e-05	0.00356092
12.852	12.6599	-0.000783897	0.00419188
12.8525	12.6595	-0.000684663	0.00335729
12.853	12.659	-0.00063485	0.000727162
12.8534	12.6586	0.000839817	0.00300076
12.8539	12.6581	-0.00015063	0.00373308
12.8544	12.6576	-0.000814305	0.00419532
12.8549	12.6571	-0.000596237	0.003335
12.8553	12.6567	-0.000639451	0.00218108
12.8558	12.6562	0.000839014	0.00272879
12.8563	12.6557	-0.000150363	0.00368203
12.8567	12.6552	-0.000887197	0.0040915
12.8572	12.6547	-0.000489869	0.00343046
12.8577	12.6543	-0.000468931	0.00206496
12.8582	12.6538	0.000826209	0.00275853
12.8586	12.6533	-0.000114354	0.0035796
12.8591	12.6529	-0.000980759	0.00410535
12.8596	12.6524	-0.00055049	0.00337146
12.8601	12.6519	-0.00065272	0.00210045
12.8605	12.6515	0.000890896	0.00270371
12.861	12.651	-6.06706e-05	0.00373964
12.8615	12.6505	-0.000947283	0.00410502
12.8619	12.65	-0.000648386	0.00326887
12.8624	12.6495	-0.000610576	0.00209996
12.8629	12.6491	0.000869423	0.00277238
12.8634	12.6486	-0.000144763	0.00368563
12.8638	12.6481	-0.00105565	0.0040457
12.8643	12.6477	-0.000533083	0.00331648
12.8648	12.6472	-0.000523417	0.00199179
12.8652	12.6467	0.000937713	0.00277721
12.8657	12.6462	-1.56552e-05	0.00368654
12.8662	12.6457	-0.00106819	0.00414657
12.8667	12.6453	-0.000448991	0.0031594
12.8671	12.6448	-0.000526217	0.00199195
12.8676	12.6443	0.000810603	0.00281565
12.8681	12.6438	-0.000127356	0.0036758
12.8686	12.6434	-0.00114001	0.00412075
12.869	12.6429	-0.000461262	0.00320503
12.8695	12.6424	-0.00039991	0.0021129
12.87	12.642	0.000834145	0.00265357
12.8704	12.6415	3.42292e-05	0.00373701
12.8709	12.6411	-0.00121877	0.00403061
12.8714	12.6406	-0.000505742	0.00320627
12.8719	12.6401	-0.000354163	0.00214281
12.8723	12.6396	0.000679231	0.00280196
12.8728	12.6392	-4.91315e-05	0.0039
12.8733	12.6387	-0.00116735	0.00401972
12.8737	12.6382	-0.000378971	0.00321889
12.8742	12.6378	-0.000406045	0.00219746
12.8747	12.6373	0.000664892	0.00284851
12.8752	12.6368	-1.56552e-05	0.00392942
12.8756	12.6363	-0.00118529	0.00394858
12.8761	12.6359	-0.000484537	0.00312703
12.8766	12.6354	-0.000339556	0.00211134
12.8771	12.6349	0.000623746	0.00280614
12.8775	12.6344	5.67013e-05	0.0038265
12.878	12.634	-0.00130826	0.00385436
12.8785	12.6335	-0.000454859	0.00313965
12.8789	12.633	-0.00028894	0.00221394
12.8794	12.6326	0.000626814	0.00276271
12.8799	12.6321	9.01775e-05	0.00383584
12.8804	12.6316	-0.001308	0.00383805
12.8808	12.6312	-0.000352362	0.00317046
12.8813	12.6307	-0.000300676	0.00211446
12.8818	12.6302	0.000609407	0.00289054
12.8822	12.6297	2.42238e-05	0.00394794
12.8827	12.6293	-0.00127325	0.00383756
12.8832	12.6288	-0.000367165	0.00308188
12.8837	12.6283	-0.000198713	0.00216911
12.8841	12.6279	0.000569261	0.00277115
12.8846	12.6274	4.01681e-06	0.0039481
12.8851	12.6269	-0.00135915	0.0038528
12.8856	12.6264	-0.000367967	0.00304247
12.886	12.626	-0.000220918	0.0020539
12.8865	12.6255	0.000513045	0.00295405
12.887	12.625	6.56366e-05	0.00406642
12.8874	12.6245	-0.00140823	0.00389377
12.8879	12.624	-0.000401711	0.0031485
12.8884	12.6236	-0.000149899	0.00229817
12.8889	12.6231	0.000477767	0.00269437
12.8893	12.6226	4.36283e-05	0.0040865
12.8898	12.6222	-0.00142817	0.00383428
12.8903	12.6217	-0.000294612	0.00303378
12.8907	12.6212	-0.000147563	0.00216428
12.8912	12.6207	0.000482369	0.00280336
12.8917	12.6202	-1.85092e-06	0.00398203
12.8922	12.6198	-0.00140536	0.00375397
12.8926	12.6193	-0.000331691	0.00305246
12.8931	12.6188	-5.24666e-05	0.00215805
12.8936	12.6184	0.000483635	0.00283744
12.8941	12.6179	9.86491e-05	0.0040924
12.8945	12.6174	-0.00143123	0.00372391
12.895	12.617	-0.00035056	0.00304591
12.8955	12.6165	3.49605e-05	0.00223139
12.8959	12.616	0.000352994	0.00282638
12.8964	12.6155	7.20393e-05	0.00404602
12.8969	12.6151	-0.00147645	0.00379692
12.8974	12.6146	-0.000422649	0.00285613
12.8978	12.6141	4.38958e-05	0.00217813
12.8983	12.6136	0.000380335	0.0028608
12.8988	12.6132	0.000186344	0.00399137
