# 1304     AichiSR QXAFS
# Start     : 8.9544
# End       : 9.0544
# Dir       : Forward
# Points    : 300
# ScanTime  : 1.01549
# Date      : 13.04.23 23:03
# Ring Cur. : 0.9[mA]
12.7557	12.7561	0.000230289	0.004077
12.7562	12.7556	-0.00149485	0.00371473
12.7566	12.7551	-0.000424451	0.00290955
12.7571	12.7547	1.48419e-06	0.00213158
12.7576	12.7542	0.000265567	0.00287342
12.7581	12.7537	0.000165602	0.00407544
12.7585	12.7533	-0.00148952	0.00376438
12.759	12.7528	-0.00030608	0.00285801
12.7595	12.7523	8.09747e-05	0.00221582
12.7599	12.7519	0.00024643	0.00293569
12.7604	12.7514	0.000235425	0.00417975
12.7609	12.7509	-0.00148825	0.0037398
12.7614	12.7505	-0.000310949	0.00291685
12.7618	12.75	0.000166404	0.0022513
12.7623	12.7495	0.00033432	0.00299002
12.7628	12.7491	0.000145127	0.00429947
12.7632	12.7486	-0.00146011	0.00380143
12.7637	12.7481	-0.00041218	0.00280803
12.7642	12.7477	0.000237691	0.0022731
12.7647	12.7472	0.000246162	0.0029774
12.7651	12.7467	0.000165067	0.00428128
12.7656	12.7462	-0.00145751	0.00364966
12.7661	12.7458	-0.000405046	0.00282703
12.7666	12.7453	0.000262767	0.00221566
12.767	12.7448	0.000169204	0.00289988
12.7675	12.7443	0.000241026	0.00409912
12.768	12.7439	-0.0015294	0.00364499
12.7684	12.7434	-0.000376635	0.00279434
12.7689	12.7429	0.000247161	0.00236979
12.7694	12.7425	0.000114451	0.00289816
12.7699	12.742	0.000132125	0.00420343
12.7703	12.7415	-0.00135734	0.00359238
12.7708	12.741	-0.000479935	0.00279933
12.7713	12.7406	0.000269633	0.00233554
12.7717	12.7401	6.2569e-05	0.00297306
12.7722	12.7396	5.69688e-05	0.00419795
12.7727	12.7392	-0.00140156	0.00348914
12.7732	12.7387	-0.000401176	0.00275107
12.7736	12.7382	0.000430487	0.00233989
12.7741	12.7378	0.00011932	0.00294069
12.7746	12.7373	0.000125455	0.00419221
12.7751	12.7368	-0.00133967	0.00358829
12.7755	12.7363	-0.000410379	0.00260563
12.776	12.7358	0.00036653	0.00229662
12.7765	12.7354	-8.44996e-06	0.00306303
12.7769	12.7349	-2.79257e-05	0.00422957
12.7774	12.7344	-0.00125124	0.00365417
12.7779	12.7339	-0.000368431	0.0026307
12.7784	12.7334	0.000368867	0.00226982
12.7788	12.733	5.57025e-05	0.00303001
12.7793	12.7325	8.91787e-05	0.0042803
12.7798	12.732	-0.00139515	0.00348635
12.7802	12.7316	-0.00054382	0.0025826
12.7807	12.7311	0.000636017	0.00236184
12.7812	12.7306	-7.85413e-05	0.00309385
12.7817	12.7301	-6.24007e-05	0.00423908
12.7821	12.7297	-0.00129492	0.00360123
12.7826	12.7292	-0.000443391	0.00256113
12.7831	12.7287	0.000493373	0.00232169
12.7836	12.7283	-7.70075e-05	0.00316079
12.784	12.7278	-6.70733e-05	0.00421991
12.7845	12.7273	-0.00116282	0.003517
12.785	12.7269	-0.000600303	0.00256564
12.7854	12.7264	0.00065749	0.00240527
12.7859	12.7259	-2.99233e-05	0.00307254
12.7864	12.7254	-0.000120222	0.00422507
12.7869	12.7249	-0.00119476	0.00350471
12.7873	12.7245	-0.000463527	0.00239454
12.7878	12.724	0.000641617	0.00238831
12.7883	12.7235	-1.28551e-05	0.00320766
12.7887	12.7231	-0.000189243	0.00418147
12.7892	12.7226	-0.00110807	0.00357058
12.7897	12.7221	-0.00050881	0.00245026
12.7902	12.7217	0.000628883	0.00260316
12.7906	12.7212	-6.32032e-05	0.00315784
12.7911	12.7207	-0.000278204	0.00423408
12.7916	12.7202	-0.00112287	0.0036014
12.7921	12.7198	-0.000464597	0.00255302
12.7925	12.7193	0.000660558	0.00248902
12.793	12.7189	2.483e-06	0.0031594
12.7935	12.7184	-0.000357694	0.0042372
12.7939	12.7179	-0.00098536	0.00360016
12.7944	12.7175	-0.000575566	0.00234767
12.7949	12.717	0.000889363	0.00243019
12.7954	12.7165	-0.000119419	0.00322463
12.7958	12.716	-0.000326554	0.00415001
12.7963	12.7155	-0.00104211	0.00365573
12.7968	12.7151	-0.000459996	0.00240823
12.7972	12.7146	0.000804004	0.00243453
12.7977	12.7141	-5.55342e-05	0.00314694
12.7982	12.7136	-0.000381236	0.00418442
12.7987	12.7132	-0.000900733	0.00360279
12.7991	12.7127	-0.000548689	0.00232792
12.7996	12.7122	0.000938712	0.00259522
12.8001	12.7118	-0.000154233	0.00328706
12.8006	12.7113	-0.000333956	0.00421647
12.801	12.7108	-0.00100503	0.00343153
12.8015	12.7103	-0.000576565	0.00225442
12.802	12.7099	0.000895498	0.00252344
12.8024	12.7094	-3.83948e-05	0.0034244
12.8029	12.7089	-0.000409112	0.00424015
12.8034	12.7085	-0.00074095	0.00355748
12.8039	12.708	-0.000486534	0.00233505
12.8043	12.7075	0.000954852	0.00259522
12.8048	12.707	-4.75977e-05	0.0034208
12.8053	12.7066	-0.000516212	0.00409863
12.8057	12.7061	-0.000762156	0.00351609
12.8062	12.7056	-0.000553558	0.00228056
12.8067	12.7051	0.000931043	0.00257981
12.8072	12.7046	-0.000228391	0.00350004
12.8076	12.7042	-0.000563296	0.0041972
12.8081	12.7037	-0.000929876	0.00340163
12.8086	12.7032	-0.000625379	0.00223402
12.8091	12.7027	0.00091904	0.00259694
12.8095	12.7023	-0.000165701	0.00347684
12.81	12.7018	-0.000611575	0.00415345
12.8105	12.7013	-0.000799235	0.00362475
12.8109	12.7009	-0.00063205	0.00232276
12.8114	12.7004	0.00100647	0.00260005
12.8119	12.6999	-0.000163971	0.00345693
12.8124	12.6995	-0.000591368	0.00419221
12.8128	12.699	-0.000939346	0.0034675
12.8133	12.6985	-0.000653255	0.00223573
12.8138	12.6981	0.000932844	0.00266512
12.8142	12.6976	-0.000158299	0.00358099
12.8147	12.6971	-0.000712343	0.00419081
12.8152	12.6967	-0.000768023	0.00343293
12.8157	12.6962	-0.000638185	0.00218575
12.8161	12.6957	0.000998798	0.0027101
12.8166	12.6952	-7.57412e-05	0.00351265
12.8171	12.6947	-0.000700536	0.00410223
12.8176	12.6943	-0.000597236	0.00347513
12.818	12.6938	-0.00057883	0.00215961
12.8185	12.6933	0.00097786	0.00270978
12.819	12.6929	-4.11949e-05	0.00354969
12.8194	12.6924	-0.000787232	0.00403308
12.8199	12.6919	-0.000638452	0.00339465
12.8204	12.6915	-0.000624844	0.00210995
12.8209	12.691	0.000951517	0.00274763
12.8213	12.6905	-0.00021225	0.00366179
12.8218	12.69	-0.00087926	0.00404586
12.8223	12.6896	-0.000653523	0.0033881
12.8227	12.6891	-0.000602907	0.00218763
12.8232	12.6887	0.000882764	0.00266061
12.8237	12.6882	-0.000194112	0.00357788
12.8242	12.6877	-0.000823044	0.00408011
12.8246	12.6872	-0.000520813	0.00340228
12.8251	12.6868	-0.000666328	0.002161
12.8256	12.6863	0.000872491	0.00283589
12.8261	12.6858	-0.000152967	0.00369588
12.8265	12.6853	-0.00103064	0.00410518
12.827	12.6848	-0.000506545	0.00319021
12.8275	12.6844	-0.00055049	0.00209905
12.8279	12.6839	0.000833414	0.0026802
12.8284	12.6834	-6.44695e-05	0.00364016
12.8289	12.6829	-0.00098149	0.00399481
12.8294	12.6825	-0.000558694	0.0032796
12.8298	12.682	-0.000465596	0.00217018
12.8303	12.6816	0.000826476	0.00266774
12.8308	12.6811	-8.46765e-05	0.00365368
12.8312	12.6806	-0.00102217	0.00408167
12.8317	12.6801	-0.000512145	0.0031063
12.8322	12.6796	-0.000615909	0.00209422
12.8327	12.6792	0.000712707	0.00273968
12.8331	12.6787	-6.86072e-05	0.0037711
12.8336	12.6783	-0.00111194	0.00389533
12.8341	12.6778	-0.000530016	0.00323209
12.8346	12.6773	-0.000449259	0.00203318
12.835	12.6768	0.000785866	0.00271961
12.8355	12.6763	-0.000107684	0.00371833
12.836	12.6759	-0.00119856	0.0039962
12.8364	12.6754	-0.000467397	0.00313809
12.8369	12.6749	-0.000481933	0.0020816
12.8374	12.6744	0.000682299	0.00279885
12.8379	12.6739	-0.000157301	0.00372407
12.8383	12.6735	-0.00118502	0.00395277
12.8388	12.673	-0.000519547	0.00310475
12.8393	12.6725	-0.000387372	0.00202604
12.8397	12.6721	0.000697369	0.00288915
12.8402	12.6716	-4.42625e-05	0.00380658
12.8407	12.6711	-0.0012249	0.00406749
12.8412	12.6707	-0.000542286	0.00315768
12.8416	12.6702	-0.000431852	0.00208004
12.8421	12.6697	0.000614543	0.00276878
12.8426	12.6693	-2.12554e-05	0.00388255
12.8431	12.6688	-0.00126451	0.00390762
12.8435	12.6683	-0.000438255	0.00314694
12.844	12.6679	-0.000298411	0.00215338
12.8445	12.6674	0.000543988	0.00281581
12.8449	12.6669	2.3225e-05	0.003782
12.8454	12.6664	-0.00126965	0.00395245
12.8459	12.666	-0.000378169	0.00304591
12.8464	12.6655	-0.000270267	0.00215075
12.8468	12.665	0.000507444	0.00282032
12.8473	12.6645	-2.79257e-05	0.00390934
12.8478	12.6641	-0.00140869	0.00383149
12.8482	12.6636	-0.000240394	0.00311564
12.8487	12.6631	-0.000203047	0.00210045
12.8492	12.6627	0.000562127	0.00297478
12.8497	12.6622	2.29575e-05	0.00399137
12.8501	12.6617	-0.001331	0.0038855
12.8506	12.6613	-0.000461993	0.00308639
12.8511	12.6608	-0.000164702	0.00218887
12.8516	12.6603	0.000576198	0.00284416
12.852	12.6598	1.948e-06	0.00396039
12.8525	12.6594	-0.00139902	0.00380782
12.853	12.6589	-0.000394773	0.00304918
12.8534	12.6585	-6.29357e-05	0.00216739
12.8539	12.658	0.000471899	0.00286005
12.8544	12.6575	4.31645e-05	0.00399169
12.8549	12.657	-0.00146498	0.00379552
12.8553	12.6565	-0.000370036	0.00303345
12.8558	12.6561	3.00915e-05	0.0021333
12.8563	12.6556	0.000407747	0.00299969
12.8567	12.6551	0.000153599	0.00403963
12.8572	12.6546	-0.0015284	0.00375816
12.8577	12.6542	-0.000236256	0.00303517
12.8582	12.6537	1.22208e-05	0.00212412
12.8586	12.6532	0.000249497	0.00289087
12.8591	12.6527	9.29777e-05	0.00404184
12.8596	12.6523	-0.0015488	0.00379601
12.8601	12.6518	-0.000408577	0.00284072
12.8605	12.6513	-6.01356e-05	0.00206775
12.861	12.6509	0.000327454	0.00279246
12.8615	12.6504	0.000235622	0.00396506
12.8619	12.6499	-0.00146498	0.00370587
12.8624	12.6494	-0.00043212	0.00293381
12.8629	12.649	0.000185809	0.00218796
12.8634	12.6485	0.000332323	0.00287841
12.8638	12.648	0.000153064	0.00415345
12.8643	12.6475	-0.00149439	0.0036685
12.8648	12.6471	-0.00037997	0.00288292
12.8652	12.6466	0.000115521	0.00221222
12.8657	12.6461	0.000275768	0.00292946
12.8662	12.6456	0.000193745	0.00419033
12.8667	12.6451	-0.00150072	0.00375225
12.8671	12.6447	-0.000400177	0.00296543
12.8676	12.6442	0.000236157	0.00220911
12.8681	12.6437	0.000317449	0.00294455
12.8686	12.6433	0.000196813	0.00412059
12.869	12.6428	-0.0014399	0.00379397
12.8695	12.6423	-0.000385838	0.00283605
12.87	12.6419	0.000201414	0.00226966
12.8704	12.6414	0.000289573	0.00296355
12.8709	12.6409	3.5228e-05	0.00427768
12.8714	12.6405	-0.00157695	0.00369792
12.8719	12.64	-0.000288673	0.00277517
12.8723	12.6395	0.000319517	0.00218796
12.8728	12.6391	0.000132393	0.00290004
12.8733	12.6386	0.000157665	0.00423532
12.8737	12.6381	-0.00150306	0.00354331
12.8742	12.6377	-0.000355162	0.00280598
12.8747	12.6372	0.000179941	0.0023139
12.8752	12.6367	9.4779e-05	0.00316235
12.8756	12.6362	0.000165869	0.00417197
12.8761	12.6358	-0.00127118	0.00360779
12.8766	12.6353	-0.000443391	0.00267413
12.8771	12.6348	0.000349195	0.00230268
12.8775	12.6343	0.000170738	0.00304107
12.878	12.6339	0.000189411	0.00420015
12.8785	12.6334	-0.00136655	0.00362705
12.8789	12.6329	-0.000436989	0.00266979
12.8794	12.6325	0.000363463	0.00228448
12.8799	12.632	-5.12003e-05	0.00297757
12.8804	12.6315	5.15648e-05	0.00427472
12.8808	12.631	-0.00137061	0.00369416
12.8813	12.6306	-0.000416782	0.00264643
12.8818	12.6301	0.000399543	0.00227605
12.8822	12.6296	3.2855e-06	0.00312203
12.8827	12.6292	6.43703e-05	0.00420933
12.8832	12.6287	-0.001308	0.00368343
12.8837	12.6282	-0.000367432	0.00271429
12.8841	12.6278	0.00055419	0.00242133
12.8846	12.6273	2.85577e-05	0.00305713
12.8851	12.6268	-2.99945e-05	0.00419934
12.8856	12.6263	-0.00130313	0.00353289
12.886	12.6258	-0.00053822	0.00259629
12.8865	12.6254	0.000563928	0.00230891
12.887	12.6249	8.45773e-05	0.0032002
12.8874	12.6244	-6.24007e-05	0.00420278
12.8879	12.6239	-0.00115055	0.00360172
12.8884	12.6234	-0.000468931	0.00256359
12.8889	12.623	0.000597672	0.00238831
12.8893	12.6225	-3.6861e-05	0.00317669
12.8898	12.622	-0.00014396	0.00424809
12.8903	12.6216	-0.00124844	0.00357944
12.8907	12.6211	-0.000431121	0.00257793
12.8912	12.6206	0.000603004	0.00240527
12.8917	12.6201	4.13632e-05	0.0031907
12.8922	12.6197	-0.000171105	0.00445951
12.8926	12.6192	-0.00129979	0.00355141
12.8931	12.6187	-0.00050881	0.00260563
12.8936	12.6183	0.000530184	0.00240388
12.8941	12.6178	-8.31427e-05	0.00315538
12.8945	12.6173	-6.06706e-05	0.00425014
12.895	12.6168	-0.0012195	0.00355313
12.8955	12.6164	-0.000484804	0.00243969
12.8959	12.6159	0.000667424	0.00250492
12.8964	12.6154	-8.52115e-07	0.00324224
12.8969	12.6149	-0.000196912	0.00424793
12.8974	12.6145	-0.00107766	0.00349069
12.8978	12.614	-0.00044719	0.00245493
12.8983	12.6135	0.000728848	0.0023852
12.8988	12.6131	-1.94541e-05	0.0032796
