# 1304     AichiSR QXAFS
# Start     : 8.9544
# End       : 9.0544
# Dir       : Backward
# Points    : 300
# ScanTime  : 1.01549
# Date      : 13.04.24 00:02
# Ring Cur. : 1[mA]
12.7557	12.6124	-0.000868256	0.00348807
12.7562	12.6128	-0.000411913	0.00245338
12.7566	12.6133	0.00105221	0.00265422
12.7571	12.6138	-9.84808e-05	0.00332878
12.7576	12.6142	-0.000336489	0.00427284
12.7581	12.6147	-0.000863922	0.00356076
12.7585	12.6152	-0.000427786	0.00237848
12.759	12.6157	0.0010126	0.0025381
12.7595	12.6161	4.97635e-05	0.00347856
12.7599	12.6166	-0.000418315	0.00420278
12.7604	12.6171	-0.000673195	0.00356059
12.7609	12.6176	-0.000560959	0.00234939
12.7614	12.6181	0.00113684	0.00267757
12.7618	12.6185	7.53745e-05	0.00347684
12.7623	12.619	-0.000536151	0.00432143
12.7628	12.6194	-0.000772161	0.00349832
12.7632	12.6199	-0.000546888	0.00235824
12.7637	12.6204	0.00102974	0.0026729
12.7642	12.6209	6.62061e-06	0.00351265
12.7647	12.6214	-0.000656591	0.00419983
12.7651	12.6218	-0.000687267	0.00347185
12.7656	12.6223	-0.000491403	0.00215649
12.7661	12.6228	0.000988864	0.00265298
12.7666	12.6232	-1.97216e-05	0.00359984
12.767	12.6237	-0.000585233	0.00417771
12.7675	12.6242	-0.000605172	0.00351765
12.768	12.6246	-0.000564295	0.00218935
12.7684	12.6251	0.00107729	0.00270822
12.7689	12.6256	-8.16089e-05	0.00354814
12.7694	12.6261	-0.000557892	0.00408371
12.7699	12.6266	-0.000618513	0.0034412
12.7703	12.627	-0.000513411	0.00225179
12.7708	12.6275	0.00107882	0.00275149
12.7713	12.628	-0.000129157	0.00353568
12.7717	12.6285	-0.000740415	0.00412199
12.7722	12.6289	-0.000540021	0.00332722
12.7727	12.6294	-0.000519012	0.0021442
12.7732	12.6299	0.00109776	0.00283326
12.7736	12.6303	-8.52115e-05	0.00366286
12.7741	12.6308	-0.00077316	0.00425416
12.7746	12.6313	-0.000543356	0.00333361
12.7751	12.6318	-0.000460727	0.00212412
12.7755	12.6322	0.0010957	0.00280057
12.776	12.6327	7.71758e-05	0.00366179
12.7765	12.6331	-0.000825577	0.00414518
12.7769	12.6336	-0.000408577	0.00326683
12.7774	12.6341	-0.000480934	0.00211011
12.7779	12.6346	0.000937446	0.00277828
12.7784	12.635	1.48419e-06	0.00363377
12.7788	12.6355	-0.000936546	0.00418147
12.7793	12.636	-0.00044439	0.00336442
12.7798	12.6365	-0.000359496	0.00213765
12.7802	12.6369	0.000925175	0.00271494
12.7807	12.6374	0.000114522	0.00391057
12.7812	12.6379	-0.00101197	0.00404135
12.7817	12.6384	-0.000245994	0.00330886
12.7821	12.6388	-0.000469466	0.0021406
12.7826	12.6393	0.000966053	0.00273222
12.7831	12.6397	6.81692e-07	0.00382822
12.7836	12.6402	-0.000978155	0.00399776
12.784	12.6407	-0.000440056	0.00337769
12.7845	12.6412	-0.000348028	0.00222377
12.785	12.6416	0.000944312	0.00289382
12.7854	12.6421	4.3432e-05	0.0037384
12.7859	12.6426	-0.0010219	0.00405864
12.7864	12.643	-0.000364632	0.00324675
12.7869	12.6435	-0.00029941	0.00224556
12.7873	12.644	0.000771794	0.00284727
12.7878	12.6444	0.00014313	0.00385952
12.7883	12.6449	-0.00102424	0.00408666
12.7887	12.6454	-0.000308612	0.00328084
12.7892	12.6459	-0.000196377	0.00219697
12.7897	12.6463	0.000821608	0.00288259
12.7902	12.6468	0.000102448	0.0038855
12.7906	12.6473	-0.00108099	0.00400382
12.7911	12.6478	-0.00027387	0.00312236
12.7916	12.6483	-0.00025286	0.00205562
12.7921	12.6487	0.000774862	0.00292619
12.7925	12.6492	0.000135193	0.00401268
12.793	12.6497	-0.00122237	0.00400801
12.7935	12.6501	-0.000255732	0.00309729
12.7939	12.6506	-0.000118688	0.00220304
12.7944	12.6511	0.000716577	0.00284416
12.7949	12.6516	3.24278e-05	0.0039976
12.7954	12.652	-0.0013366	0.00396678
12.7958	12.6525	-0.000296075	0.00304296
12.7963	12.653	5.0031e-05	0.00224696
12.7968	12.6534	0.000524049	0.00284228
12.7972	12.6539	0.00012599	0.00406331
12.7977	12.6544	-0.00124511	0.00378806
12.7982	12.6549	-0.000349294	0.0030931
12.7987	12.6553	7.71758e-05	0.00216895
12.7991	12.6558	0.000564195	0.00283294
12.7996	12.6563	0.000154865	0.00415796
12.8001	12.6568	-0.0013088	0.00390762
12.8006	12.6573	-0.000355429	0.00303828
12.801	12.6577	8.61111e-05	0.00224868
12.8015	12.6582	0.000467762	0.00278639
12.802	12.6587	0.000144128	0.00417991
12.8024	12.6591	-0.00129419	0.00387025
12.8029	12.6596	-0.000231922	0.00303173
12.8034	12.6601	0.000127524	0.00220336
12.8039	12.6605	0.000407943	0.00291078
12.8043	12.661	0.000251495	0.00408339
12.8048	12.6615	-0.0013402	0.00373497
12.8053	12.662	-0.000293007	0.00304296
12.8057	12.6624	0.000215486	0.00219574
12.8062	12.6629	0.000321515	0.0028871
12.8067	12.6633	0.000282974	0.00426334
12.8072	12.6638	-0.00139109	0.00369809
12.8076	12.6643	-0.00020278	0.00296651
12.8081	12.6648	0.000149996	0.00215494
12.8086	12.6652	0.000228755	0.00296946
12.8091	12.6657	0.000272701	0.00422179
12.8095	12.6662	-0.00128272	0.00377512
12.81	12.6667	-0.000313018	0.00282671
12.8105	12.6671	0.000292176	0.00227015
12.8109	12.6676	0.000365532	0.00297322
12.8114	12.6681	0.000397207	0.0042671
12.8119	12.6686	-0.0014113	0.0037784
12.8124	12.669	-0.000284339	0.0029198
12.8128	12.6695	0.000320516	0.00234193
12.8133	12.6699	0.000256096	0.00301149
12.8138	12.6704	0.000335123	0.0043661
12.8142	12.6709	-0.00126758	0.00371956
12.8147	12.6714	-0.000271534	0.00288775
12.8152	12.6718	0.000460895	0.00222656
12.8157	12.6723	0.00022542	0.00311318
12.8161	12.6728	0.000159199	0.00417648
12.8166	12.6732	-0.00126098	0.00366179
12.8171	12.6737	-0.000192311	0.00279294
12.8176	12.6742	0.000479568	0.00226236
12.818	12.6746	0.000284971	0.0030895
12.8185	12.6751	0.000175339	0.00438526
12.819	12.6756	-0.00133334	0.00355608
12.8194	12.6761	-0.000225056	0.00277082
12.8199	12.6766	0.000503842	0.00227498
12.8204	12.677	0.000149265	0.00311662
12.8209	12.6775	0.000163604	0.00435724
12.8213	12.678	-0.00118629	0.00364794
12.8218	12.6785	-0.000311216	0.00264348
12.8223	12.6789	0.000690235	0.0024319
12.8227	12.6794	7.79071e-05	0.00326575
12.8232	12.6799	0.000100914	0.00427333
12.8237	12.6803	-0.00111627	0.00359034
12.8242	12.6808	-0.000266736	0.00274001
12.8246	12.6813	0.000652889	0.00241027
12.8251	12.6818	0.000147731	0.00314899
12.8256	12.6822	6.77054e-05	0.00424514
12.8261	12.6827	-0.00108839	0.00375349
12.8265	12.6832	-0.000344693	0.00259956
12.827	12.6836	0.000701239	0.0024923
12.8275	12.6841	0.000122923	0.00314743
12.8279	12.6846	-7.44749e-05	0.00432889
12.8284	12.6851	-0.00109426	0.00359189
12.8289	12.6856	-0.00036383	0.00257138
12.8294	12.686	0.000844151	0.00242723
12.8298	12.6865	6.56366e-05	0.00321094
12.8303	12.687	-5.96006e-05	0.004273
12.8308	12.6875	-0.00105032	0.00367425
12.8312	12.688	-0.000285605	0.00242224
12.8317	12.6884	0.00075412	0.00243969
12.8322	12.6889	9.49192e-07	0.0033291
12.8327	12.6893	9.0445e-05	0.00434118
12.8331	12.6898	-0.000993029	0.00367006
12.8336	12.6903	-0.000425984	0.00250352
12.8341	12.6907	0.000916971	0.00246927
12.8346	12.6912	1.09545e-05	0.00330419
12.835	12.6917	-0.000204314	0.00418861
12.8355	12.6922	-0.000986894	0.00358411
12.836	12.6926	-0.000418048	0.00249123
12.8364	12.6931	0.000923374	0.00253884
12.8369	12.6935	0.00011372	0.00328132
12.8374	12.694	-0.000263865	0.00416107
12.8379	12.6945	-0.000878993	0.00354068
12.8383	12.695	-0.000479668	0.00238815
12.8388	12.6954	0.00103281	0.00258539
12.8393	12.6959	-1.25876e-05	0.00349086
12.8397	12.6964	-0.000415515	0.00421057
12.8402	12.6969	-0.000898397	0.00355887
12.8407	12.6974	-0.000455394	0.0023153
12.8412	12.6978	0.00095018	0.00247534
12.8416	12.6983	-2.61243e-05	0.00335729
12.8421	12.6988	-0.000356428	0.00422195
12.8426	12.6992	-0.000759819	0.00357182
12.8431	12.6997	-0.000525949	0.00224991
12.8435	12.7001	0.00100593	0.00260005
12.844	12.7006	3.62268e-05	0.00349069
12.8445	12.7011	-0.000465596	0.00426334
12.8449	12.7016	-0.000760889	0.00337876
12.8454	12.702	-0.000537221	0.00236356
12.8459	12.7025	0.00106935	0.00264504
12.8464	12.703	3.5763e-05	0.00340866
12.8468	12.7034	-0.000484804	0.00412354
12.8473	12.7039	-0.000712806	0.00340335
12.8478	12.7044	-0.000568093	0.00229162
12.8482	12.7049	0.00108776	0.00261218
12.8487	12.7054	-4.47975e-05	0.00348881
12.8492	12.7058	-0.000592438	0.00419672
12.8497	12.7063	-0.00067653	0.00346144
12.8501	12.7068	-0.00055329	0.00217657
12.8506	12.7073	0.00107395	0.00277705
12.8511	12.7078	7.30382e-05	0.00346267
12.8516	12.7082	-0.000516479	0.00422662
12.852	12.7087	-0.000610309	0.00346004
12.8525	12.7092	-0.000578366	0.00218779
12.853	12.7096	0.00109723	0.00271027
12.8534	12.7101	0.000103714	0.00355716
12.8539	12.7106	-0.000618245	0.00416386
12.8544	12.7111	-0.000516747	0.0034566
12.8549	12.7115	-0.000483734	0.00220803
12.8553	12.712	0.00105175	0.00281065
12.8558	12.7125	-2.94595e-05	0.00359205
12.8563	12.7129	-0.00077036	0.00411345
12.8567	12.7134	-0.000601908	0.00342342
12.8572	12.7139	-0.000453593	0.00213175
12.8577	12.7143	0.000984262	0.002785
12.8582	12.7148	-3.89298e-05	0.00357133
12.8586	12.7153	-0.000871591	0.0041287
12.8591	12.7158	-0.00040271	0.00333484
12.8596	12.7163	-0.000529017	0.00216428
12.8601	12.7167	0.00106042	0.00281442
12.8605	12.7172	-6.93385e-05	0.0036604
12.861	12.7177	-0.000793634	0.00411715
12.8615	12.7182	-0.0004794	0.00335713
12.8619	12.7186	-0.000475334	0.00218608
12.8624	12.7191	0.001019	0.00270527
12.8629	12.7195	6.74379e-05	0.00378323
12.8634	12.72	-0.00087366	0.00398546
12.8638	12.7205	-0.000485803	0.00333672
12.8643	12.721	-0.000446655	0.00215494
12.8648	12.7214	0.000879892	0.00277968
12.8652	12.7219	-8.46765e-05	0.0038156
12.8657	12.7224	-0.000928342	0.00416853
12.8662	12.7228	-0.000428321	0.00318152
12.8667	12.7233	-0.00041778	0.00218452
12.8671	12.7237	0.000964252	0.00276336
12.8676	12.7242	5.3543e-06	0.00366383
12.8681	12.7247	-0.000973821	0.00403652
12.8686	12.7252	-0.000421383	0.00323462
12.869	12.7257	-0.000544088	0.0022563
12.8695	12.7261	0.000833147	0.00296479
12.87	12.7266	0.000113987	0.0038287
12.8704	12.7271	-0.000937545	0.00406782
12.8709	12.7276	-0.00037997	0.00316874
12.8714	12.728	-0.000297145	0.0020634
12.8719	12.7285	0.000820074	0.00284523
12.8723	12.729	0.000146661	0.00382183
12.8728	12.7294	-0.000973357	0.00403979
12.8733	12.7299	-0.000276135	0.00317095
12.8737	12.7304	-0.000228854	0.00214543
12.8742	12.7308	0.000720911	0.00279418
12.8747	12.7313	0.000165067	0.00392254
12.8752	12.7318	-0.0012065	0.00403169
12.8756	12.7323	-0.000329087	0.00313997
12.8761	12.7327	-0.00020838	0.00212257
12.8766	12.7332	0.000586204	0.00294691
12.8771	12.7337	8.55761e-05	0.00394858
12.8775	12.7342	-0.00127172	0.00391648
12.878	12.7346	-0.000324753	0.00307254
12.8785	12.7351	-0.000123022	0.00213765
12.8789	12.7356	0.000654422	0.00282531
12.8794	12.7361	0.000207549	0.00401767
12.8799	12.7366	-0.00119269	0.003817
12.8804	12.737	-0.00027667	0.00311548
12.8808	12.7375	-3.55947e-05	0.00216272
12.8813	12.738	0.000571597	0.00294315
12.8818	12.7385	9.99154e-05	0.00404897
12.8822	12.7389	-0.0012313	0.00385452
12.8827	12.7394	-0.000219652	0.00308327
12.8832	12.7399	5.20998e-05	0.00226344
12.8837	12.7403	0.000546521	0.00294954
12.8841	12.7408	0.000247161	0.00397768
12.8846	12.7413	-0.0013162	0.00382822
12.8851	12.7418	-0.000284072	0.00301616
12.8856	12.7422	3.70293e-05	0.0022141
12.886	12.7427	0.000512242	0.00296978
12.8865	12.7431	0.000192675	0.00416247
12.887	12.7436	-0.00139109	0.00375939
12.8874	12.7441	-0.000131422	0.00301976
12.8879	12.7446	1.70898e-05	0.00220943
12.8884	12.745	0.000548322	0.00299109
12.8889	12.7455	0.000125188	0.00401488
12.8893	12.746	-0.00136961	0.00372562
12.8898	12.7465	-0.000275404	0.0030087
12.8903	12.747	8.15097e-05	0.00227793
12.8907	12.7474	0.000444023	0.0028594
12.8912	12.7479	0.000315647	0.00410797
12.8917	12.7484	-0.00146904	0.0038519
12.8922	12.7488	-0.000286872	0.00302272
12.8926	12.7493	0.000241561	0.00214715
12.8931	12.7498	0.000270168	0.00296527
12.8936	12.7502	0.000216485	0.00417041
12.8941	12.7507	-0.00134561	0.00365556
12.8945	12.7512	-0.000301478	0.00289693
12.895	12.7517	0.000290643	0.00230998
12.8955	12.7521	0.000236692	0.00305197
12.8959	12.7526	0.000374467	0.00422318
12.8964	12.753	-0.00153373	0.0037194
12.8969	12.7535	-0.000225252	0.00290627
12.8974	12.754	0.000411278	0.00224196
12.8978	12.7544	0.000195814	0.00318603
12.8983	12.7549	0.00027864	0.00423006
12.8988	12.7554	-0.00129012	0.00370211
