# 1304     AichiSR QXAFS
# Start     : 8.9544
# End       : 9.0544
# Dir       : Forward
# Points    : 300
# ScanTime  : 1.01549
# Date      : 13.04.24 00:16
# Ring Cur. : 1[mA]
12.7557	12.7563	-3.71285e-05	0.00429013
12.7562	12.7558	-0.00116048	0.00356526
12.7566	12.7553	-0.000434385	0.00260112
12.7571	12.7548	0.000600472	0.0024274
12.7576	12.7544	-0.000122023	0.00317374
12.7581	12.7539	-9.72145e-05	0.00418958
12.7585	12.7534	-0.00112701	0.00357042
12.759	12.753	-0.000582165	0.00253155
12.7595	12.7525	0.000697637	0.00236496
12.7599	12.752	-7.88088e-05	0.00315612
12.7604	12.7516	-0.000195646	0.00432315
12.7609	12.7511	-0.00108686	0.00354879
12.7614	12.7506	-0.000435722	0.00252344
12.7618	12.7502	0.000669761	0.00245166
12.7623	12.7497	-0.000126624	0.00315661
12.7628	12.7492	-9.51457e-05	0.0042744
12.7632	12.7488	-0.00109859	0.00359984
12.7637	12.7483	-0.000454128	0.00242256
12.7642	12.7478	0.000658025	0.00232808
12.7647	12.7474	-4.65988e-05	0.00317717
12.7651	12.7469	-0.000254465	0.00422318
12.7656	12.7464	-0.00104338	0.00349069
12.7661	12.7459	-0.000576833	0.00256285
12.7666	12.7455	0.000793731	0.00244313
12.767	12.745	-7.70075e-05	0.00331337
12.7675	12.7445	-0.000303012	0.00420933
12.768	12.744	-0.00107919	0.00360934
12.7684	12.7436	-0.00048607	0.00249665
12.7689	12.7431	0.000772258	0.0025549
12.7694	12.7426	4.44308e-05	0.00330263
12.7699	12.7422	-0.000425984	0.00420294
12.7703	12.7417	-0.000974624	0.00353961
12.7708	12.7412	-0.000512413	0.0023539
12.7713	12.7407	0.00078353	0.00255565
12.7717	12.7403	-6.57359e-05	0.00325281
12.7722	12.7398	-0.000398108	0.0040974
12.7727	12.7393	-0.000993761	0.00347513
12.7732	12.7389	-0.000605707	0.00232464
12.7736	12.7384	0.000895034	0.00250631
12.7741	12.7379	-2.79257e-05	0.00341956
12.7746	12.7375	-0.000485535	0.00421041
12.7751	12.737	-0.0010091	0.00342359
12.7755	12.7365	-0.000583967	0.00227138
12.776	12.736	0.000865624	0.00252376
12.7765	12.7355	-2.8657e-05	0.00333517
12.7769	12.735	-0.000445121	0.00428546
12.7774	12.7346	-0.000820975	0.00343341
12.7779	12.7341	-0.000561227	0.00230596
12.7784	12.7336	0.0010118	0.00262668
12.7788	12.7331	-0.000136826	0.00339572
12.7793	12.7327	-0.000613911	0.0039794
12.7798	12.7322	-0.000817908	0.00355109
12.7802	12.7317	-0.000678064	0.00227793
12.7807	12.7313	0.00092464	0.00261873
12.7812	12.7308	9.15323e-06	0.00349332
12.7817	12.7303	-0.000656323	0.00420966
12.7821	12.7298	-0.00089533	0.00341301
12.7826	12.7294	-0.000631247	0.00224508
12.7831	12.7289	0.000915705	0.00262152
12.7836	12.7284	-3.6861e-05	0.00341613
12.784	12.728	-0.000566363	0.00418861
12.7845	12.7275	-0.000817908	0.00349069
12.785	12.727	-0.000701606	0.00227187
12.7854	12.7266	0.00104274	0.00266323
12.7859	12.7261	-0.000196645	0.00345816
12.7864	12.7256	-0.000660461	0.00415591
12.7869	12.7251	-0.000681934	0.00353584
12.7873	12.7246	-0.000613376	0.00213298
12.7878	12.7242	0.000895034	0.00260472
12.7883	12.7237	-0.000129157	0.00349708
12.7887	12.7232	-0.000892529	0.00409257
12.7892	12.7228	-0.000718745	0.00346439
12.7897	12.7223	-0.000649189	0.00223885
12.7902	12.7219	0.000933575	0.0027428
12.7906	12.7214	-5.96718e-05	0.00360247
12.7911	12.7209	-0.000796435	0.00426538
12.7916	12.7204	-0.000649189	0.00353584
12.7921	12.72	-0.000612841	0.00217534
12.7925	12.7195	0.000943046	0.00265873
12.793	12.719	6.74379e-05	0.00364343
12.7935	12.7186	-0.000857787	0.00422007
12.7939	12.7181	-0.000604174	0.00333361
12.7944	12.7176	-0.000602372	0.00220041
12.7949	12.7172	0.000907037	0.00268954
12.7954	12.7167	-6.32032e-05	0.00361836
12.7958	12.7162	-0.000958751	0.0040647
12.7963	12.7157	-0.000528749	0.00341457
12.7968	12.7153	-0.000648386	0.00218189
12.7972	12.7148	0.000868157	0.00273174
12.7977	12.7143	-2.99233e-05	0.00372251
12.7982	12.7138	-0.000906601	0.00407126
12.7987	12.7133	-0.000580631	0.00336475
12.7991	12.7129	-0.000634582	0.00222967
12.7996	12.7124	0.000873026	0.00277893
12.8001	12.712	-4.37987e-05	0.00386698
12.8006	12.7115	-0.00107559	0.00419049
12.801	12.711	-0.000532085	0.00335589
12.8015	12.7105	-0.000624844	0.00224008
12.802	12.7101	0.000854085	0.0028594
12.8024	12.7096	-8.98496e-06	0.00371333
12.8029	12.7091	-0.000969023	0.00413788
12.8034	12.7087	-0.000475066	0.00330607
12.8039	12.7082	-0.000499875	0.00220508
12.8043	12.7077	0.000878626	0.00283933
12.8048	12.7072	-2.73907e-05	0.00371596
12.8053	12.7068	-0.00114641	0.00406159
12.8057	12.7063	-0.000558623	0.00325609
12.8062	12.7058	-0.000446191	0.00222811
12.8067	12.7053	0.000819075	0.00286547
12.8072	12.7048	-5.18604e-06	0.00385952
12.8076	12.7043	-0.00113981	0.00393688
12.8081	12.7039	-0.000424986	0.00332926
12.8086	12.7034	-0.000403245	0.00210979
12.8091	12.7029	0.000809872	0.00297864
12.8095	12.7025	8.76449e-05	0.00380782
12.81	12.702	-0.0011086	0.0040879
12.8105	12.7015	-0.000463331	0.00315612
12.8109	12.7011	-0.000296877	0.00212536
12.8114	12.7006	0.000664892	0.00279836
12.8119	12.7001	7.15043e-05	0.00382199
12.8124	12.6996	-0.00130286	0.00393097
12.8128	12.6992	-0.000416514	0.00314587
12.8133	12.6987	-0.000250595	0.00221566
12.8138	12.6983	0.000737783	0.00279713
12.8142	12.6978	-3.43284e-05	0.00376438
12.8147	12.6973	-0.00122337	0.00398358
12.8152	12.6968	-0.000368235	0.00306615
12.8157	12.6964	-0.000207649	0.00216584
12.8161	12.6959	0.000668494	0.00270232
12.8166	12.6954	6.15702e-05	0.00385624
12.8171	12.6949	-0.00141436	0.00387074
12.8176	12.6945	-0.000378971	0.003099
12.818	12.694	-0.000254394	0.00220599
12.8185	12.6935	0.000476768	0.00289194
12.819	12.693	7.84421e-05	0.00397285
12.8194	12.6926	-0.0012295	0.00398015
12.8199	12.6921	-0.000365631	0.00302304
12.8204	12.6917	-0.000364632	0.00221442
12.8209	12.6912	0.000600472	0.00279401
12.8213	12.6907	0.000175072	0.00400882
12.8218	12.6902	-0.00147572	0.00396007
12.8223	12.6898	-0.00034776	0.00310556
12.8227	12.6893	-0.000205116	0.00212052
12.8232	12.6888	0.000399275	0.00289956
12.8237	12.6884	0.000111918	0.00404307
12.8242	12.6879	-0.00136321	0.00382838
12.8246	12.6874	-0.000395843	0.00302787
12.8251	12.687	-4.42625e-05	0.00220803
12.8256	12.6865	0.00039314	0.00303099
12.8261	12.686	8.68424e-05	0.00407217
12.8265	12.6855	-0.00142203	0.00384567
12.827	12.685	-0.000404511	0.0028521
12.8275	12.6845	-7.95401e-05	0.00218887
12.8279	12.6841	0.000317449	0.00289038
12.8284	12.6836	0.000160001	0.00413927
12.8289	12.6831	-0.00142123	0.00384051
12.8294	12.6827	-0.000362296	0.00299609
12.8298	12.6822	3.2855e-06	0.00218715
12.8303	12.6817	0.000392873	0.00293709
12.8308	12.6813	7.5107e-05	0.00419049
12.8312	12.6808	-0.0014187	0.00370694
12.8317	12.6803	-0.000351559	0.00285973
12.8322	12.6798	6.97742e-05	0.00226827
12.8327	12.6794	0.000411813	0.00299281
12.8331	12.6789	0.000184007	0.00419655
12.8336	12.6784	-0.00153653	0.0036881
12.8341	12.678	-0.000245726	0.00297585
12.8346	12.6775	0.000123654	0.00231669
12.835	12.677	0.000280173	0.00293102
12.8355	12.6765	0.000230557	0.00412542
12.836	12.676	-0.00150026	0.00370662
12.8364	12.6756	-0.00038277	0.00279852
12.8369	12.6751	0.000213952	0.00225614
12.8374	12.6746	0.000272433	0.00285425
12.8379	12.6741	0.000190143	0.00422662
12.8383	12.6736	-0.00145731	0.00370227
12.8388	12.6732	-0.000440252	0.00290718
12.8393	12.6727	0.000175072	0.00221657
12.8397	12.6722	0.000175874	0.00300248
12.8402	12.6718	8.96425e-05	0.00420729
12.8407	12.6713	-0.00152353	0.00359828
12.8412	12.6708	-0.000347225	0.00294831
12.8416	12.6704	0.000200344	0.00226875
12.8421	12.6699	0.000110385	0.00293102
12.8426	12.6694	0.000224885	0.00435708
12.8431	12.669	-0.00155727	0.00378527
12.8435	12.6685	-0.000342891	0.00286719
12.844	12.6681	0.000338191	0.00234332
12.8445	12.6676	0.000205748	0.00299313
12.8449	12.6671	0.000110117	0.00434806
12.8454	12.6666	-0.00135454	0.00362131
12.8459	12.6662	-0.000483003	0.00273362
12.8464	12.6657	0.000450694	0.00234816
12.8468	12.6652	0.000112721	0.00309466
12.8473	12.6647	0.000140793	0.00417197
12.8478	12.6642	-0.00135474	0.00378774
12.8482	12.6638	-0.000287407	0.00273625
12.8487	12.6633	0.000465497	0.00229146
12.8492	12.6628	4.44308e-05	0.00311162
12.8497	12.6624	0.000105516	0.00428218
12.8501	12.6619	-0.00153273	0.00369309
12.8506	12.6615	-0.000390707	0.0027931
12.8511	12.661	0.000446823	0.00226253
12.8516	12.6605	0.000163533	0.00305573
12.852	12.66	5.77001e-05	0.00435987
12.8525	12.6596	-0.00132333	0.00361337
12.853	12.6591	-0.000343159	0.00259645
12.8534	12.6586	0.000453494	0.00229227
12.8539	12.6582	2.16912e-05	0.00311785
12.8544	12.6577	-4.84002e-05	0.00428342
12.8549	12.6572	-0.00136241	0.00363237
12.8553	12.6567	-0.00040551	0.00266979
12.8558	12.6563	0.000526581	0.00229973
12.8563	12.6558	3.36942e-05	0.0031893
12.8567	12.6553	-2.51255e-05	0.00424203
12.8572	12.6548	-0.00127092	0.003541
12.8577	12.6543	-0.000489405	0.00272363
12.8582	12.6539	0.000587934	0.00238332
12.8586	12.6534	6.89717e-05	0.00316874
12.8591	12.6529	-4.47975e-05	0.00431488
12.8596	12.6525	-0.00127118	0.00373497
12.8601	12.652	-0.000368966	0.00270978
12.8605	12.6515	0.00065469	0.00243593
12.861	12.6511	7.76396e-05	0.00315988
12.8615	12.6506	-5.27341e-05	0.00424621
12.8619	12.6501	-0.0012185	0.00362722
12.8624	12.6496	-0.000477866	0.00267011
12.8629	12.6492	0.000661557	0.00240168
12.8634	12.6487	-6.22044e-05	0.00323241
12.8638	12.6482	-0.000132956	0.00417524
12.8643	12.6477	-0.00114234	0.00372095
12.8648	12.6473	-0.000452594	0.00243813
12.8652	12.6468	0.0006813	0.00247501
12.8657	12.6463	1.65548e-05	0.0032206
12.8662	12.6458	-0.000104884	0.00412993
12.8667	12.6453	-0.001092	0.00361074
12.8671	12.6449	-0.000507276	0.00259784
12.8676	12.6444	0.000710175	0.00250771
12.8681	12.6439	-8.52115e-07	0.0032279
12.8686	12.6434	-0.000239859	0.00434495
12.869	12.643	-0.0010191	0.0035578
12.8695	12.6425	-0.00050214	0.00255925
12.87	12.6421	0.000864554	0.00255597
12.8704	12.6416	-7.88088e-05	0.0032883
12.8709	12.6411	-0.00020838	0.0043057
12.8714	12.6406	-0.00100837	0.00361885
12.8719	12.6402	-0.000522347	0.00237086
12.8723	12.6397	0.000692233	0.00249992
12.8728	12.6392	-0.000150898	0.00342907
12.8733	12.6388	-0.000296342	0.00424482
12.8737	12.6383	-0.00105691	0.00357386
12.8742	12.6379	-0.000554289	0.00249107
12.8747	12.6374	0.000799599	0.00264111
12.8752	12.6369	-0.000111019	0.00331772
12.8756	12.6364	-0.000460459	0.00438494
12.8761	12.636	-0.00102137	0.00357665
12.8766	12.6355	-0.000483003	0.00234644
12.8771	12.635	0.000880427	0.0026634
12.8775	12.6345	-5.77993e-05	0.00341145
12.878	12.634	-0.000406045	0.00419
12.8785	12.6336	-0.000973357	0.00364016
12.8789	12.6331	-0.000481201	0.00240232
12.8794	12.6326	0.000852819	0.00260579
12.8799	12.6322	5.97689e-05	0.00337736
12.8804	12.6317	-0.000413981	0.00435692
12.8808	12.6312	-0.000845784	0.00354986
12.8813	12.6308	-0.000564295	0.00232169
12.8818	12.6303	0.00100493	0.00261513
12.8822	12.6298	2.60251e-05	0.00344399
12.8827	12.6293	-0.000571429	0.00427005
12.8832	12.6289	-0.000815375	0.00352822
12.8837	12.6284	-0.000617247	0.00226811
12.8841	12.628	0.000978323	0.00268831
12.8846	12.6275	-7.11398e-05	0.00343792
12.8851	12.627	-0.000509345	0.00425572
12.8856	12.6265	-0.000910471	0.00367162
12.886	12.626	-0.000591636	0.00224475
12.8865	12.6256	0.000959918	0.00264938
12.887	12.6251	-5.03978e-05	0.00341473
12.8874	12.6246	-0.000689799	0.00425727
12.8879	12.6241	-0.000690067	0.00344866
12.8884	12.6236	-0.000655324	0.00222918
12.8889	12.6232	0.000992395	0.0027691
12.8893	12.6227	-8.46765e-05	0.00351577
12.8898	12.6222	-0.000772625	0.00419377
12.8903	12.6218	-0.000712271	0.00347636
12.8907	12.6213	-0.000674461	0.00225318
12.8912	12.6208	0.00100133	0.00264348
12.8917	12.6203	-0.000220454	0.00365744
12.8922	12.6199	-0.00078823	0.00429357
12.8926	12.6194	-0.000702337	0.00345939
12.8931	12.6189	-0.000682933	0.00215043
12.8936	12.6185	0.000978858	0.00270887
12.8941	12.618	-0.000209985	0.00357944
12.8945	12.6175	-0.000843715	0.00423982
12.895	12.617	-0.000621313	0.00348914
12.8955	12.6166	-0.000660924	0.00211585
12.8959	12.6161	0.000906502	0.00280991
12.8964	12.6156	-0.000153698	0.00363532
12.8969	12.6151	-0.00087646	0.00431611
12.8974	12.6147	-0.000547423	0.0033713
12.8978	12.6142	-0.000712539	0.00213642
12.8983	12.6137	0.000930775	0.00272428
12.8988	12.6132	-5.17353e-05	0.00357182
