# 1304     AichiSR QXAFS
# Start     : 8.9544
# End       : 9.0544
# Dir       : Backward
# Points    : 300
# ScanTime  : 1.01549
# Date      : 13.04.24 00:02
# Ring Cur. : 1[mA]
12.7557	12.6124	0.000831345	0.0025236
12.7562	12.6128	-8.4944e-05	0.00325904
12.7566	12.6133	-0.000255732	0.00419672
12.7571	12.6138	-0.000898932	0.00350643
12.7576	12.6142	-0.000529284	0.00238396
12.7581	12.6147	0.000964252	0.00244575
12.7585	12.6152	-2.45905e-05	0.00331058
12.759	12.6157	-0.000428517	0.00412854
12.7595	12.6161	-0.000956949	0.00349987
12.7599	12.6166	-0.000511878	0.00232727
12.7604	12.6171	0.000994464	0.00252687
12.7609	12.6176	-5.88693e-05	0.00328969
12.7614	12.6181	-0.00034389	0.00418566
12.7618	12.6185	-0.000761692	0.00351995
12.7623	12.619	-0.000455127	0.00224991
12.7628	12.6194	0.00106268	0.00270559
12.7632	12.6199	-1.46564e-05	0.00332631
12.7637	12.6204	-0.000598306	0.00403775
12.7642	12.6209	-0.000743286	0.00346128
12.7647	12.6214	-0.00043492	0.00229613
12.7651	12.6218	0.00103534	0.00267725
12.7656	12.6223	-7.80926e-07	0.00354191
12.7661	12.6228	-0.000616979	0.00418738
12.7666	12.6232	-0.000712539	0.00341457
12.767	12.6237	-0.000553558	0.00221378
12.7675	12.6242	0.00102027	0.00259645
12.768	12.6246	-5.86018e-05	0.0034507
12.7684	12.6251	-0.000605975	0.00404946
12.7689	12.6256	-0.000650723	0.00353692
12.7694	12.6261	-0.000610309	0.00212863
12.7699	12.6266	0.00106475	0.00277737
12.7703	12.627	6.9703e-05	0.00357042
12.7708	12.6275	-0.00070487	0.00403824
12.7713	12.628	-0.000613376	0.00340039
12.7717	12.6285	-0.000620243	0.00215338
12.7722	12.6289	0.000986795	0.00274747
12.7727	12.6294	1.93549e-05	0.00355748
12.7732	12.6299	-0.000562226	0.00419688
12.7736	12.6303	-0.000589103	0.00337205
12.7741	12.6308	-0.000453058	0.00210356
12.7746	12.6313	0.000937446	0.00268552
12.7751	12.6318	-8.56754e-05	0.00355265
12.7755	12.6322	-0.000766026	0.00406003
12.776	12.6327	-0.000433921	0.00330451
12.7765	12.6331	-0.000528214	0.00210807
12.7769	12.6336	0.000951517	0.0026511
12.7774	12.6341	1.96224e-05	0.00363721
12.7779	12.6346	-0.000821974	0.00411936
12.7784	12.635	-0.000569627	0.00337377
12.7788	12.6355	-0.000427518	0.00221689
12.7793	12.636	0.001009	0.002721
12.7798	12.6365	1.96224e-05	0.0036881
12.7802	12.6369	-0.000854452	0.0041287
12.7807	12.6374	-0.000451792	0.00332132
12.7812	12.6379	-0.000583967	0.002107
12.7817	12.6384	0.00102514	0.00271773
12.7821	12.6388	-7.71866e-06	0.00367441
12.7826	12.6393	-0.000946016	0.0040239
12.7831	12.6397	-0.00038277	0.00330575
12.7836	12.6402	-0.000479668	0.00216165
12.784	12.6407	0.000865624	0.00276771
12.7845	12.6412	1.47535e-05	0.00368047
12.785	12.6416	-0.00102371	0.00393392
12.7854	12.6421	-0.000466595	0.00317685
12.7859	12.6426	-0.000410914	0.00206029
12.7864	12.643	0.000965322	0.00280835
12.7869	12.6435	-1.07863e-05	0.00378634
12.7873	12.644	-0.00103851	0.00393876
12.7878	12.6444	-0.00044159	0.0032919
12.7883	12.6449	-0.00040378	0.00212273
12.7887	12.6454	0.000800669	0.00279541
12.7892	12.6459	-4.38354e-06	0.00375692
12.7897	12.6463	-0.00108713	0.00396163
12.7902	12.6468	-0.000376903	0.00313433
12.7906	12.6473	-0.000298143	0.00213142
12.7911	12.6478	0.000692036	0.00284679
12.7916	12.6483	8.12422e-05	0.00369261
12.7921	12.6487	-0.00115895	0.00394203
12.7925	12.6492	-0.00033829	0.00315521
12.793	12.6497	-0.000233723	0.00217346
12.7935	12.6501	0.000743116	0.00273141
12.7939	12.6506	7.35192e-06	0.0038287
12.7944	12.6511	-0.00129266	0.00394778
12.7949	12.6516	-0.000254929	0.00311629
12.7954	12.652	-0.000229853	0.00217502
12.7958	12.6525	0.000609942	0.00283965
12.7963	12.653	0.000177408	0.0039
12.7968	12.6534	-0.00122084	0.00393409
12.7972	12.6539	-0.000375101	0.00316595
12.7977	12.6544	-5.09328e-05	0.00220025
12.7982	12.6549	0.000575663	0.00285334
12.7987	12.6553	0.000105052	0.00392303
12.7991	12.6558	-0.0012037	0.00379101
12.7996	12.6563	-0.000421383	0.00301697
12.8001	12.6568	-0.000166236	0.00218403
12.8006	12.6573	0.000435819	0.00285489
12.801	12.6577	0.000170471	0.0039154
12.8015	12.6582	-0.00130646	0.00380068
12.802	12.6587	-0.000285605	0.00305369
12.8024	12.6591	5.85026e-05	0.00226499
12.8029	12.6596	0.000460628	0.00283433
12.8034	12.6601	0.000151066	0.00405209
12.8039	12.6605	-0.00137088	0.00380937
12.8043	12.661	-0.000370232	0.00299732
12.8048	12.6615	-5.21991e-05	0.00212691
12.8053	12.662	0.000486435	0.00285613
12.8057	12.6624	6.51016e-05	0.00414271
12.8062	12.6629	-0.00132	0.00367301
12.8067	12.6633	-0.000208647	0.00296372
12.8072	12.6638	0.000172272	0.00225753
12.8076	12.6643	0.000479033	0.00293118
12.8081	12.6648	0.000139527	0.00410535
12.8086	12.6652	-0.0014353	0.0038192
12.8091	12.6657	-0.00013836	0.00294815
12.8095	12.6662	0.000131127	0.00214699
12.81	12.6667	0.000420214	0.0029438
12.8105	12.6671	0.000230557	0.0041505
12.8109	12.6676	-0.00150486	0.00368064
12.8114	12.6681	-0.000255197	0.00296667
12.8119	12.6686	0.000285506	0.00222967
12.8124	12.669	0.000359664	0.00291282
12.8128	12.6695	0.000187075	0.00419967
12.8133	12.6699	-0.00138775	0.0037085
12.8138	12.6704	-0.00032222	0.00279466
12.8142	12.6709	0.000273503	0.00221517
12.8147	12.6714	0.000379871	0.00288431
12.8152	12.6718	0.000176071	0.00414706
12.8157	12.6723	-0.00140689	0.00372283
12.8161	12.6728	-0.000193113	0.00282966
12.8166	12.6732	0.000325653	0.00225786
12.8171	12.6737	0.000383402	0.00293209
12.8176	12.6742	0.000305446	0.00423424
12.818	12.6746	-0.00136014	0.00367097
12.8185	12.6751	-0.000297876	0.00282327
12.819	12.6756	0.000465764	0.00223106
12.8194	12.6761	0.00023489	0.00280663
12.8199	12.6766	0.000273503	0.00414878
12.8204	12.677	-0.00138215	0.00355625
12.8209	12.6775	-0.000341357	0.00282188
12.8213	12.678	0.000339724	0.00219853
12.8218	12.6785	0.000303377	0.00291733
12.8223	12.679	0.000200612	0.00427129
12.8227	12.6794	-0.00142663	0.00368498
12.8232	12.6799	-0.000389173	0.002785
12.8237	12.6803	0.000568262	0.00228072
12.8242	12.6808	0.000188074	0.00309868
12.8246	12.6813	0.000256364	0.00435117
12.8251	12.6818	-0.00126018	0.00367425
12.8256	12.6822	-0.000312215	0.00263537
12.8261	12.6827	0.000533983	0.00237741
12.8265	12.6832	0.000150264	0.00304312
12.827	12.6836	2.60251e-05	0.00419844
12.8275	12.6841	-0.00135094	0.00363098
12.8279	12.6846	-0.000408845	0.00257202
12.8284	12.6851	0.000686097	0.00223106
12.8289	12.6856	8.02434e-05	0.00302443
12.8294	12.686	-5.64985e-06	0.00421647
12.8298	12.6865	-0.00113414	0.00361508
12.8303	12.687	-0.000332422	0.00256891
12.8308	12.6875	0.000632949	0.00235357
12.8312	12.6879	6.35678e-05	0.00318168
12.8317	12.6884	-4.07311e-05	0.00421368
12.8322	12.6889	-0.00115922	0.00364778
12.8327	12.6893	-0.000416782	0.00250196
12.8331	12.6898	0.000737248	0.00229006
12.8336	12.6903	8.48448e-05	0.00315194
12.8341	12.6907	-0.000124021	0.00423006
12.8346	12.6912	-0.00105898	0.00361492
12.835	12.6917	-0.000377901	0.00253917
12.8355	12.6922	0.000814473	0.00249729
12.836	12.6926	4.56971e-05	0.00322044
12.8364	12.6931	-5.40004e-05	0.00424171
12.8369	12.6935	-0.000923206	0.0034952
12.8374	12.694	-0.000441055	0.00259055
12.8379	12.6945	0.000781996	0.00248919
12.8383	12.695	-2.33242e-05	0.003222
12.8388	12.6954	-0.000163168	0.0042249
12.8393	12.6959	-0.00100457	0.00346874
12.8397	12.6964	-0.000407044	0.00247705
12.8402	12.6969	0.000940781	0.00248919
12.8407	12.6974	-2.38592e-06	0.00334639
12.8412	12.6978	-0.000308612	0.00428546
12.8416	12.6983	-0.000955951	0.00345628
12.8421	12.6988	-0.000490672	0.00251705
12.8426	12.6992	0.000921305	0.00255302
12.8431	12.6997	3.5228e-05	0.00327633
12.8435	12.7001	-0.000331423	0.00420762
12.844	12.7006	-0.00100837	0.00354642
12.8445	12.7011	-0.000456928	0.00243936
12.8449	12.7016	0.000960988	0.00257202
12.8454	12.702	2.93602e-05	0.00342375
12.8459	12.7025	-0.000345424	0.00421073
12.8464	12.703	-0.000904336	0.00354019
12.8468	12.7034	-0.000516212	0.00242911
12.8473	12.7039	0.000955851	0.00247222
12.8478	12.7044	-3.43284e-05	0.00341784
12.8482	12.7049	-0.000449259	0.00417336
12.8487	12.7054	-0.000856253	0.00343014
12.8492	12.7058	-0.000511878	0.000865726
12.8497	12.7063	0.00103841	0.0028644
12.8501	12.7068	-7.29411e-05	0.00348667
12.8506	12.7073	-0.000538951	0.00419049
12.8511	12.7078	-0.000757822	0.00347078
12.8516	12.7082	-0.000460727	0.00219526
12.852	12.7087	0.0010172	0.00272116
12.8525	12.7092	4.80334e-05	0.00345193
12.853	12.7096	-0.000482735	0.00410191
12.8534	12.7101	-0.000733013	0.00351249
12.8539	12.7106	-0.000490404	0.00220992
12.8544	12.7111	0.00104535	0.00270216
12.8549	12.7115	-0.000203315	0.00338687
12.8553	12.712	-0.00053262	0.0041564
12.8558	12.7125	-0.000724346	0.0034879
12.8563	12.7129	-0.000617443	0.0021887
12.8567	12.7134	0.00107089	0.00264348
12.8572	12.7139	-6.26682e-05	0.00366212
12.8577	12.7143	-0.000680864	0.00420155
12.8582	12.7148	-0.000630248	0.00339777
12.8586	12.7153	-0.00063765	0.00214093
12.8591	12.7158	0.00101387	0.00275697
12.8596	12.7163	4.03644e-05	0.00345553
12.8601	12.7167	-0.000495737	0.0041936
12.8605	12.7172	-0.000714875	0.00342751
12.861	12.7177	-0.000608507	0.00211446
12.8615	12.7182	0.000982657	0.00268176
12.8619	12.7186	1.5021e-05	0.00346627
12.8624	12.7191	-0.000712075	0.00409675
12.8629	12.7195	-0.000603442	0.00341973
12.8634	12.72	-0.000542554	0.00219869
12.8638	12.7205	0.00099853	0.0026307
12.8643	12.721	-2.63918e-05	0.00363565
12.8648	12.7214	-0.000859053	0.00420622
12.8652	12.7219	-0.000453593	0.00325405
12.8657	12.7224	-0.000545621	0.00218763
12.8662	12.7228	0.00093411	0.00273936
12.8667	12.7233	-2.61243e-05	0.00364638
12.8671	12.7237	-0.000927807	0.00417991
12.8676	12.7242	-0.000489405	0.0033663
12.8681	12.7247	-0.000519012	0.00203366
12.8686	12.7252	0.000925175	0.00279122
12.869	12.7257	-2.33242e-05	0.00368842
12.8695	12.7261	-0.000879724	0.00410674
12.87	12.7266	-0.000505742	0.00322356
12.8704	12.7271	-0.000489602	0.00213905
12.8709	12.7276	0.0010062	0.00283294
12.8714	12.728	-2.27892e-05	0.00370817
12.8719	12.7285	-0.000926808	0.0040216
12.8723	12.729	-0.000379435	0.00326387
12.8728	12.7294	-0.000408381	0.00207586
12.8733	12.7299	0.000875558	0.00282843
12.8737	12.7304	-1.97216e-05	0.00380986
12.8742	12.7308	-0.00105158	0.00400415
12.8747	12.7313	-0.00032115	0.00315956
12.8752	12.7318	-0.00038557	0.0021973
12.8756	12.7323	0.000841815	0.00274575
12.8761	12.7327	-0.00010615	0.00383928
12.8766	12.7332	-0.00113007	0.00395744
12.8771	12.7337	-0.000375904	0.00333205
12.8775	12.7342	-0.000323951	0.00202711
12.878	12.7346	0.000809337	0.00290939
12.8785	12.7351	3.67618e-05	0.00385313
12.8789	12.7356	-0.00124971	0.00389049
12.8794	12.7361	-0.00033442	0.0031739
12.8799	12.7365	-0.000181841	0.00221845
12.8804	12.737	0.000657223	0.00270232
12.8808	12.7375	0.000206016	0.00386821
12.8813	12.738	-0.00125305	0.00389516
12.8818	12.7385	-0.000321953	0.00318243
12.8822	12.7389	-0.000159298	0.0020321
12.8827	12.7394	0.000718575	0.00285597
12.8832	12.7399	9.5314e-05	0.00393688
12.8837	12.7403	-0.00128372	0.00393999
12.8841	12.7408	-0.000424451	0.00309605
12.8846	12.7413	-7.16036e-05	0.00209438
12.8851	12.7418	0.000537051	0.00285768
12.8856	12.7422	4.56971e-05	0.0039059
12.886	12.7427	-0.00137675	0.00403045
12.8865	12.7431	-0.000317548	0.00305123
12.887	12.7436	-0.000105151	0.00218935
12.8874	12.7441	0.000614008	0.00287309
12.8879	12.7446	8.91787e-05	0.00401128
12.8884	12.745	-0.00140589	0.00387181
12.8889	12.7455	-0.000455394	0.00308327
12.8893	12.746	-0.000106417	0.00216567
12.8898	12.7465	0.000514846	0.00280851
12.8903	12.747	0.000122923	0.00395588
12.8907	12.7474	-0.00136501	0.003876
12.8912	12.7479	-0.000259263	0.00287948
12.8917	12.7484	0.000182474	0.00217313
12.8922	12.7488	0.00043482	0.00295888
12.8926	12.7493	0.000320052	0.00413444
12.8931	12.7498	-0.00135761	0.00378446
12.8936	12.7502	-0.000246796	0.0028907
12.8941	12.7507	3.82956e-05	0.00215338
12.8945	12.7512	0.000379336	0.00299362
12.895	12.7517	0.00022262	0.00422737
12.8955	12.7521	-0.00144657	0.00374415
12.8959	12.7526	-0.000352629	0.00296388
12.8964	12.753	0.000124456	0.00221582
12.8969	12.7535	0.000402076	0.00294036
12.8974	12.754	0.000261768	0.00422039
12.8978	12.7544	-0.00138722	0.00370243
12.8983	12.7549	-0.000252129	0.00290627
12.8988	12.7554	0.000202146	0.00231514
