# 1304     AichiSR QXAFS
# Start     : 8.9544
# End       : 9.0544
# Dir       : Forward
# Points    : 300
# ScanTime  : 1.01549
# Date      : 13.04.23 22:47
# Ring Cur. : 0.9[mA]
12.7557	12.756	-0.000581166	0.00224819
12.7562	12.7555	0.000715775	0.00275944
12.7566	12.755	-6.83397e-05	0.00372611
12.7571	12.7545	-0.00115868	0.00393876
12.7576	12.7541	-0.000498073	0.00325077
12.7581	12.7536	-0.000603906	0.00212085
12.7585	12.7531	0.000783797	0.00264069
12.759	12.7527	-8.3874e-05	0.00378274
12.7595	12.7522	-0.00111167	0.0039467
12.7599	12.7517	-0.000524148	0.00312842
12.7604	12.7513	-0.000415783	0.00216756
12.7609	12.7508	0.000748252	0.00273034
12.7614	12.7503	-2.27892e-05	0.00382011
12.7618	12.7498	-0.00123591	0.00401595
12.7623	12.7494	-0.000508275	0.0031172
12.7628	12.7489	-0.000369768	0.00207521
12.7632	12.7485	0.00075519	0.00279074
12.7637	12.748	2.11562e-05	0.00377888
12.7642	12.7475	-0.0012167	0.00403652
12.7647	12.747	-0.00048887	0.0031594
12.7651	12.7466	-0.000311216	0.00217035
12.7656	12.7461	0.00060914	0.00281801
12.7661	12.7456	-4.47975e-05	0.00408011
12.7666	12.7451	-0.00121236	0.00392925
12.767	12.7447	-0.000401443	0.00303533
12.7675	12.7442	-0.000272336	0.00215011
12.768	12.7437	0.000661093	0.00286391
12.7684	12.7432	-6.9606e-05	0.00413911
12.7689	12.7428	-0.00143963	0.00386403
12.7694	12.7423	-0.000496272	0.0031113
12.7699	12.7418	-0.000304279	0.00229162
12.7703	12.7414	0.000451425	0.00293381
12.7708	12.7409	3.26242e-05	0.00408913
12.7713	12.7404	-0.00138162	0.00385001
12.7717	12.7399	-0.0004738	0.00318947
12.7722	12.7395	-8.00751e-05	0.00220894
12.7727	12.739	0.000516112	0.00288276
12.7732	12.7386	5.08335e-05	0.00403512
12.7736	12.7381	-0.00153166	0.00375692
12.7741	12.7376	-0.000418048	0.00306631
12.7746	12.7371	1.83561e-05	0.00206013
12.7751	12.7366	0.000313115	0.00281753
12.7755	12.7362	6.89717e-05	0.00414706
12.776	12.7357	-0.00151226	0.0038855
12.7765	12.7352	-0.000360762	0.00289972
12.7769	12.7347	0.000122923	0.00216272
12.7774	12.7342	0.000409477	0.0028776
12.7779	12.7338	0.000155132	0.00417803
12.7784	12.7333	-0.00155674	0.00387181
12.7788	12.7328	-0.000306347	0.0028186
12.7793	12.7324	5.95014e-05	0.00219354
12.7798	12.7319	0.000298312	0.00294643
12.7802	12.7314	7.58383e-05	0.00412199
12.7807	12.7309	-0.00153066	0.00369481
12.7812	12.7305	-0.00038557	0.00288898
12.7817	12.73	7.94409e-05	0.00215649
12.7821	12.7295	0.000236424	0.00286375
12.7826	12.7291	0.000244093	0.0041659
12.7831	12.7286	-0.00144604	0.00372095
12.7836	12.7281	-0.000455929	0.00274903
12.784	12.7277	0.000161	0.00219526
12.7845	12.7272	7.71758e-05	0.00290783
12.785	12.7267	0.000186344	0.00413026
12.7854	12.7262	-0.00158768	0.00370227
12.7859	12.7258	-0.000350025	0.00274747
12.7864	12.7253	0.000175803	0.00228867
12.7869	12.7248	0.000136192	0.00301976
12.7873	12.7243	0.000194013	0.00425744
12.7878	12.7238	-0.00145677	0.00358583
12.7883	12.7234	-0.000307614	0.00276336
12.7887	12.7229	0.000243826	0.002284
12.7892	12.7225	0.000208816	0.00297649
12.7897	12.722	0.000102983	0.00431053
12.7902	12.7215	-0.00143403	0.00354084
12.7906	12.7211	-0.000393239	0.00267118
12.7911	12.7206	0.000413615	0.00221206
12.7916	12.7201	0.000131858	0.003021
12.7921	12.7196	0.00013159	0.00424015
12.7925	12.7192	-0.00146237	0.0036976
12.793	12.7187	-0.000399642	0.00275509
12.7935	12.7183	0.000543988	0.0023058
12.7939	12.7178	6.87042e-05	0.00310679
12.7944	12.7173	1.5021e-05	0.00430758
12.7949	12.7168	-0.00129933	0.00357305
12.7954	12.7164	-0.00052108	0.00273437
12.7958	12.7159	0.000510512	0.00232448
12.7963	12.7154	-0.00018391	0.00314866
12.7968	12.7149	-4.84002e-05	0.00424981
12.7972	12.7144	-0.00125458	0.00371612
12.7977	12.714	-0.000418779	0.00258448
12.7982	12.7135	0.000471632	0.00246132
12.7987	12.713	7.87096e-05	0.00303673
12.7991	12.7126	4.74984e-05	0.0043334
12.7996	12.7121	-0.00135734	0.00364188
12.8001	12.7116	-0.000469198	0.00250803
12.8006	12.7111	0.000537586	0.00251565
12.801	12.7107	2.52226e-05	0.00320471
12.8015	12.7102	-0.000224521	0.00413042
12.802	12.7097	-0.00109733	0.00367736
12.8024	12.7093	-0.00057883	0.00253434
12.8029	12.7088	0.000698635	0.0024115
12.8034	12.7083	-6.44695e-05	0.00323102
12.8039	12.7079	-0.000223254	0.00429029
12.8043	12.7074	-0.00115228	0.00352715
12.8048	12.7069	-0.000390707	0.00238675
12.8053	12.7064	0.00081294	0.00243174
12.8057	12.7059	-0.000237059	0.00329157
12.8062	12.7055	-0.000262866	0.00433823
12.8067	12.705	-0.00116581	0.00356059
12.8072	12.7045	-0.000465328	0.00242117
12.8076	12.704	0.000806537	0.00251925
12.8081	12.7035	3.018e-06	0.00331369
12.8086	12.7031	-0.00036663	0.00415452
12.8091	12.7026	-0.00106845	0.00354379
12.8095	12.7021	-0.000556626	0.0024719
12.81	12.7017	0.000875826	0.00258604
12.8105	12.7012	-0.000176705	0.00334279
12.8109	12.7007	-0.000464865	0.00418893
12.8114	12.7002	-0.00098536	0.00361058
12.8119	12.6998	-0.000657322	0.00234611
12.8124	12.6993	0.000882229	0.00255334
12.8128	12.6989	-2.61243e-05	0.00339589
12.8133	12.6984	-0.000547423	0.00424498
12.8138	12.6979	-0.000897398	0.00348774
12.8142	12.6975	-0.000537417	0.00213051
12.8147	12.697	0.000933843	0.00262775
12.8152	12.6965	-0.000117422	0.00343062
12.8157	12.696	-0.000681399	0.00407855
12.8161	12.6955	-0.000805905	0.00352929
12.8166	12.6951	-0.000784895	0.00226392
12.8171	12.6946	0.000883495	0.00270978
12.8176	12.6941	-0.000110751	0.00327805
12.818	12.6936	-0.000574229	0.0042095
12.8185	12.6932	-0.000843448	0.0034653
12.819	12.6927	-0.000735814	0.00219853
12.8194	12.6923	0.000951981	0.00270855
12.8199	12.6918	-9.77495e-05	0.00348946
12.8204	12.6913	-0.000782095	0.00422646
12.8209	12.6908	-0.000703871	0.00337237
12.8213	12.6904	-0.000693134	0.0022432
12.8218	12.6899	0.000948182	0.0026248
12.8223	12.6894	-7.95401e-05	0.00358395
12.8227	12.689	-0.000798967	0.004136
12.8232	12.6885	-0.000685465	0.00342498
12.8237	12.688	-0.000706207	0.00220975
12.8242	12.6876	0.000902168	0.00276304
12.8246	12.6871	-9.77495e-05	0.00354363
12.8251	12.6866	-0.000887928	0.00418319
12.8256	12.6861	-0.000681863	0.00337736
12.8261	12.6857	-0.000756556	0.00218092
12.8265	12.6852	0.000900634	0.00267446
12.827	12.6847	-0.000104616	0.00357461
12.8275	12.6842	-0.000940612	0.00409085
12.8279	12.6837	-0.000631515	0.00336163
12.8284	12.6833	-0.000678866	0.00207726
12.8289	12.6828	0.000823141	0.00271961
12.8294	12.6823	-9.6412e-05	0.00363549
12.8298	12.6819	-0.00102244	0.00400243
12.8303	12.6814	-0.000576298	0.00321421
12.8308	12.6809	-0.000686999	0.00213051
12.8312	12.6804	0.000827743	0.00277828
12.8317	12.68	-0.000151897	0.00366491
12.8322	12.6795	-0.0010191	0.00413149
12.8327	12.679	-0.000646853	0.00325625
12.8331	12.6786	-0.000536419	0.00218951
12.8336	12.6781	0.000821073	0.00272895
12.8341	12.6776	7.35192e-06	0.00386542
12.8346	12.6771	-0.00124611	0.00407093
12.835	12.6767	-0.000435455	0.00322962
12.8355	12.6762	-0.000395041	0.00216584
12.836	12.6757	0.000706037	0.00268863
12.8364	12.6752	-8.24114e-05	0.0038251
12.8369	12.6747	-0.00116482	0.00405209
12.8374	12.6743	-0.000511878	0.00328223
12.8379	12.6738	-0.000390439	0.0021333
12.8383	12.6733	0.000668227	0.00278999
12.8388	12.6728	1.47535e-05	0.00389967
12.8393	12.6724	-0.00121977	0.00402873
12.8397	12.6719	-0.000465328	0.00315022
12.8402	12.6715	-0.000326019	0.00211167
12.8407	12.671	0.000643418	0.00286719
12.8412	12.6705	1.68223e-05	0.00395728
12.8416	12.67	-0.00130393	0.00387664
12.8421	12.6696	-0.000555359	0.0032125
12.8426	12.6691	-0.000375369	0.00211102
12.8431	12.6687	0.000579266	0.00295437
12.8435	12.6682	0.000112721	0.00398981
12.844	12.6677	-0.00130519	0.00401193
12.8445	12.6672	-0.000408845	0.00316267
12.8449	12.6668	-0.000151629	0.00207119
12.8454	12.6663	0.000536052	0.00297757
12.8459	12.6658	0.000103251	0.00411453
12.8464	12.6653	-0.00143197	0.0038782
12.8468	12.6649	-0.000363562	0.00315972
12.8473	12.6644	-0.000133758	0.0021034
12.8478	12.6639	0.000468297	0.00290718
12.8482	12.6634	2.72914e-05	0.00409445
12.8487	12.663	-0.0013126	0.003817
12.8492	12.6625	-0.000423184	0.00312826
12.8497	12.6621	1.88911e-05	0.00224958
12.8501	12.6616	0.000342792	0.00291234
12.8506	12.6611	0.000102448	0.00406642
12.8511	12.6606	-0.00150052	0.00378355
12.8516	12.6602	-0.000423648	0.00298739
12.852	12.6597	-5.7068e-05	0.0022309
12.8525	12.6592	0.000382671	0.00290955
12.853	12.6588	0.000136459	0.0041346
12.8534	12.6583	-0.00154447	0.00362647
12.8539	12.6578	-0.000507544	0.00296404
12.8544	12.6573	7.79071e-05	0.00235857
12.8549	12.6569	0.000250764	0.00283466
12.8553	12.6564	0.000136994	0.00415951
12.8558	12.6559	-0.00157975	0.00380798
12.8563	12.6554	-0.000369233	0.00282998
12.8567	12.655	5.82351e-05	0.0022105
12.8572	12.6545	0.000295975	0.00289194
12.8577	12.654	9.4779e-05	0.00416918
12.8582	12.6535	-0.00146525	0.00372611
12.8586	12.6531	-0.000275404	0.00301149
12.8591	12.6526	0.000178407	0.00223294
12.8596	12.6521	0.00022929	0.00291808
12.8601	12.6517	0.000141596	0.00419999
12.8605	12.6512	-0.00142943	0.00360714
12.861	12.6507	-0.000387907	0.00282655
12.8615	12.6502	0.000256096	0.00235202
12.8619	12.6498	0.000276838	0.00290267
12.8624	12.6493	9.91129e-05	0.00418926
12.8629	12.6488	-0.00145938	0.00367269
12.8634	12.6484	-0.000326822	0.00286563
12.8638	12.6479	0.000188876	0.00223573
12.8643	12.6474	0.000137993	0.00299018
12.8648	12.6469	0.000107584	0.00422614
12.8652	12.6464	-0.00135501	0.00363393
12.8657	12.646	-0.00033549	0.00275821
12.8662	12.6455	0.00053425	0.00243936
12.8667	12.645	9.0445e-05	0.00309122
12.8671	12.6445	0.000106051	0.00421835
12.8676	12.644	-0.00140643	0.00370039
12.8681	12.6436	-0.000457659	0.00278016
12.8686	12.6431	0.000388806	0.00236045
12.869	12.6426	9.75791e-05	0.00301772
12.8695	12.6422	5.77001e-05	0.00434274
12.87	12.6417	-0.00137675	0.00360435
12.8704	12.6413	-0.000404511	0.00263226
12.8709	12.6408	0.000463428	0.00231809
12.8714	12.6403	4.81931e-06	0.00306835
12.8719	12.6398	2.08887e-05	0.00426055
12.8723	12.6394	-0.00122103	0.00361787
12.8728	12.6389	-0.000479935	0.00261653
12.8733	12.6384	0.000559326	0.0022826
12.8737	12.638	-5.98681e-05	0.0032774
12.8742	12.6375	-0.000253663	0.00424702
12.8747	12.637	-0.0013116	0.00355297
12.8752	12.6366	-0.000457196	0.00252409
12.8756	12.6361	0.00038367	0.00247517
12.8761	12.6356	-7.57412e-05	0.0032388
12.8766	12.6351	-0.000143764	0.00418394
12.8771	12.6346	-0.00120343	0.00352822
12.8775	12.6342	-0.000459461	0.00249541
12.878	12.6337	0.000596405	0.00253777
12.8785	12.6332	-2.94595e-05	0.00324642
12.8789	12.6328	-0.000163168	0.00416681
12.8794	12.6323	-0.00128959	0.00354658
12.8799	12.6319	-0.000567826	0.00246025
12.8804	12.6314	0.000754387	0.00240109
12.8808	12.6309	-1.79203e-05	0.0032075
12.8813	12.6304	-0.000278471	0.00419688
12.8818	12.6299	-0.00122517	0.00357944
12.8822	12.6295	-0.000561958	0.00241896
12.8827	12.629	0.000686365	0.00243126
12.8832	12.6286	-9.6947e-05	0.00325576
12.8837	12.6281	-0.000495006	0.00420032
12.8841	12.6276	-0.00105231	0.00348103
12.8846	12.6271	-0.000559961	0.0023058
12.8851	12.6266	0.000877092	0.00257498
12.8856	12.6262	-0.000124556	0.00326232
12.886	12.6257	-0.000525949	0.00421975
12.8865	12.6252	-0.00108253	0.00343014
12.887	12.6247	-0.000530283	0.00226081
12.8874	12.6242	0.000950982	0.00248172
12.8879	12.6238	-0.000171372	0.0033568
12.8884	12.6233	-0.000492206	0.00418319
12.8889	12.6228	-0.000897933	0.00346283
12.8893	12.6224	-0.000707206	0.00233677
12.8898	12.6219	0.000859685	0.00262914
12.8903	12.6214	-6.9071e-05	0.00339744
12.8907	12.6209	-0.000475601	0.00418099
12.8912	12.6205	-0.000824311	0.00355158
12.8917	12.62	-0.000626449	0.00240651
12.8922	12.6195	0.000931043	0.00274264
12.8926	12.6191	-4.78652e-05	0.00349896
12.8931	12.6186	-0.000662191	0.00425588
12.8936	12.6181	-0.000855254	0.00355141
12.8941	12.6176	-0.000654789	0.00218468
12.8945	12.6172	0.000887365	0.0026715
12.895	12.6167	-0.000218118	0.00356886
12.8955	12.6162	-0.000732478	0.00415033
12.8959	12.6157	-0.000870057	0.00350347
12.8964	12.6153	-0.000680596	0.0021646
12.8969	12.6148	0.000974257	0.00272707
12.8974	12.6143	-0.000139626	0.0034893
12.8978	12.6138	-0.00083478	0.00405536
12.8983	12.6134	-0.00070874	0.00328723
12.8988	12.6129	-0.000658124	0.0022155
