# 1304     AichiSR QXAFS
# Start     : 8.9544
# End       : 9.0544
# Dir       : Forward
# Points    : 300
# ScanTime  : 1.01549
# Date      : 13.04.23 22:54
# Ring Cur. : 1[mA]
12.7557	12.756	-0.0011078	0.00356886
12.7562	12.7555	-0.000523881	0.00245305
12.7566	12.7551	0.000958651	0.00264815
12.7571	12.7546	-1.99891e-05	0.00328878
12.7576	12.7541	-0.000565561	0.00430275
12.7581	12.7536	-0.000860123	0.0035111
12.7585	12.7532	-0.000685198	0.00228121
12.759	12.7527	0.000932577	0.00278049
12.7595	12.7523	-8.06101e-05	0.00335573
12.7599	12.7518	-0.000701071	0.00425948
12.7604	12.7513	-0.000906869	0.00347496
12.7609	12.7508	-0.000712806	0.00231309
12.7614	12.7504	0.000946916	0.00262447
12.7618	12.7499	-0.000101548	0.00348619
12.7623	12.7494	-0.000669592	0.0041986
12.7628	12.749	-0.000782898	0.00344898
12.7632	12.7485	-0.000639986	0.00209111
12.7637	12.7481	0.00095965	0.002726
12.7642	12.7476	-0.000197715	0.00363344
12.7647	12.7471	-0.000745551	0.00419098
12.7651	12.7466	-0.000805102	0.00340072
12.7656	12.7462	-0.000627181	0.00228867
12.7661	12.7457	0.000990326	0.00271461
12.7666	12.7452	-0.000122754	0.00359034
12.767	12.7447	-0.000773891	0.00415763
12.7675	12.7442	-0.000664991	0.0034952
12.768	12.7438	-0.000809971	0.002284
12.7684	12.7433	0.000904701	0.00276894
12.7689	12.7428	-0.000148365	0.003576
12.7694	12.7424	-0.000849119	0.00413567
12.7699	12.7419	-0.000534617	0.00343948
12.7703	12.7414	-0.000547423	0.00211773
12.7708	12.741	0.000898565	0.00272428
12.7713	12.7405	-2.89245e-05	0.00366335
12.7717	12.74	-0.000971021	0.00419548
12.7722	12.7395	-0.00071994	0.00340195
12.7727	12.7391	-0.00067266	0.00222237
12.7732	12.7386	0.000986795	0.00274108
12.7736	12.7381	-0.000102351	0.00369916
12.7741	12.7377	-0.000862852	0.00413788
12.7746	12.7372	-0.000607241	0.00329313
12.7751	12.7367	-0.000542821	0.00218264
12.7755	12.7362	0.000796799	0.00273083
12.776	12.7357	8.15442e-06	0.00381764
12.7765	12.7353	-0.000942146	0.00410953
12.7769	12.7348	-0.000525682	0.00335557
12.7774	12.7343	-0.000581166	0.00222688
12.7779	12.7338	0.000840281	0.00284383
12.7784	12.7334	-0.000156498	0.00387476
12.7788	12.7329	-0.00106872	0.00403979
12.7793	12.7324	-0.000470465	0.00328379
12.7798	12.732	-0.000407579	0.00220959
12.7802	12.7315	0.000694034	0.0027428
12.7807	12.731	-6.29357e-05	0.00390762
12.7812	12.7305	-0.00104825	0.00420311
12.7817	12.73	-0.000449794	0.00321668
12.7821	12.7296	-0.000393507	0.00215354
12.7826	12.7291	0.000702969	0.00282998
12.7831	12.7287	1.09545e-05	0.00390918
12.7836	12.7282	-0.00120776	0.0040239
12.784	12.7277	-0.000407579	0.00330403
12.7845	12.7272	-0.000333956	0.00221303
12.785	12.7268	0.000633413	0.00282982
12.7854	12.7263	-5.77993e-05	0.00390418
12.7859	12.7258	-0.00123591	0.00398686
12.7864	12.7253	-0.000441322	0.00325019
12.7869	12.7249	-0.000323219	0.00218763
12.7873	12.7244	0.000565925	0.00279557
12.7878	12.7239	-3.38473e-06	0.00397719
12.7883	12.7234	-0.00134454	0.00392942
12.7887	12.723	-0.000417584	0.00309122
12.7892	12.7225	-0.00015063	0.00226327
12.7897	12.7221	0.000506374	0.00284555
12.7902	12.7216	3.82956e-05	0.00398219
12.7906	12.7211	-0.00138775	0.00392942
12.7911	12.7206	-0.000497538	0.00317857
12.7916	12.7202	-0.000249061	0.00212224
12.7921	12.7197	0.000495905	0.00287841
12.7925	12.7192	0.000133392	0.00400291
12.793	12.7188	-0.00139749	0.00382838
12.7935	12.7183	-0.000352362	0.00313137
12.7939	12.7178	-8.28752e-05	0.00209266
12.7944	12.7174	0.000416415	0.00288415
12.7949	12.7169	3.36942e-05	0.00413428
12.7954	12.7164	-0.00142176	0.00387976
12.7958	12.7159	-0.000514945	0.00305697
12.7963	12.7155	-4.65104e-06	0.00224491
12.7968	12.715	0.000388539	0.0028513
12.7972	12.7145	0.000163069	0.00407979
12.7977	12.714	-0.00146084	0.00381609
12.7982	12.7135	-0.000366166	0.00307876
12.7987	12.7131	3.98294e-05	0.00219123
12.7991	12.7126	0.000320249	0.00290144
12.7996	12.7122	7.89059e-05	0.00422925
12.8001	12.7117	-0.00155421	0.00372079
12.8006	12.7112	-0.000367165	0.00287153
12.801	12.7107	6.35678e-05	0.00228228
12.8015	12.7103	0.000271969	0.00300559
12.802	12.7098	0.00010985	0.00423768
12.8024	12.7093	-0.00155394	0.00375848
12.8029	12.7089	-0.000374834	0.00296978
12.8034	12.7084	0.000106318	0.0022636
12.8039	12.7079	0.000262232	0.00298347
12.8043	12.7074	0.000204482	0.00419221
12.8048	12.707	-0.0014371	0.00377512
12.8053	12.7065	-0.000380238	0.00291857
12.8057	12.706	0.000234159	0.00222639
12.8062	12.7055	0.00019988	0.00291701
12.8067	12.705	0.00023209	0.00423515
12.8072	12.7046	-0.00156441	0.0037988
12.8076	12.7041	-0.000476333	0.002903
12.8081	12.7036	0.000159734	0.00238971
12.8086	12.7031	0.000114718	0.00298642
12.8091	12.7027	0.000171737	0.00428079
12.8095	12.7022	-0.0014113	0.00376782
12.81	12.7017	-0.000385035	0.00282655
12.8105	12.7013	0.000245895	0.00232915
12.8109	12.7008	0.000114986	0.00299797
12.8114	12.7003	0.000266369	0.00425899
12.8119	12.6998	-0.00149746	0.00368064
12.8124	12.6994	-0.000453058	0.00289554
12.8128	12.6989	0.000393408	0.00231047
12.8133	12.6985	0.000103714	0.00300387
12.8138	12.698	0.000111455	0.0043021
12.8142	12.6975	-0.00136781	0.00377824
12.8147	12.697	-0.000327553	0.00269346
12.8152	12.6966	0.000477767	0.00238659
12.8157	12.6961	3.75643e-05	0.0031208
12.8161	12.6956	-1.81878e-05	0.00425588
12.8166	12.6951	-0.00145271	0.00363688
12.8171	12.6947	-0.000541555	0.00261046
12.8176	12.6942	0.000430219	0.00240388
12.818	12.6937	5.5435e-05	0.00318431
12.8185	12.6932	-9.51996e-06	0.00418475
12.819	12.6928	-0.0013172	0.00362566
12.8194	12.6923	-0.0003705	0.00260488
12.8199	12.6919	0.000504109	0.00235046
12.8204	12.6914	3.36942e-05	0.00317562
12.8209	12.6909	-0.000140429	0.00414206
12.8213	12.6904	-0.00118909	0.00370227
12.8218	12.69	-0.000543089	0.00266495
12.8223	12.6895	0.000491304	0.00229833
12.8227	12.689	-6.75372e-05	0.0031725
12.8232	12.6886	-8.95455e-05	0.00434478
12.8237	12.6881	-0.00119116	0.00355952
12.8242	12.6876	-0.000491207	0.00260611
12.8246	12.6872	0.000714776	0.00241682
12.8251	12.6867	-7.06048e-05	0.00327928
12.8256	12.6862	-0.000155232	0.00426866
12.8261	12.6857	-0.00124124	0.00363581
12.8265	12.6852	-0.000572231	0.00249353
12.827	12.6848	0.000703237	0.00261669
12.8275	12.6843	-0.000116887	0.00327133
12.8279	12.6838	-0.000303012	0.0042526
12.8284	12.6833	-0.0011318	0.00374119
12.8289	12.6829	-0.000571429	0.00243936
12.8294	12.6824	0.000797602	0.00252311
12.8298	12.6819	-8.4944e-05	0.00323848
12.8303	12.6815	-0.000380238	0.00426571
12.8308	12.681	-0.00108099	0.00366179
12.8312	12.6805	-0.000554824	0.00247034
12.8317	12.68	0.000764857	0.00259162
12.8322	12.6796	-4.86677e-05	0.00340195
12.8327	12.6791	-0.000480934	0.00423532
12.8331	12.6786	-0.000973357	0.00367425
12.8336	12.6782	-0.000556893	0.00237135
12.8341	12.6777	0.000829544	0.00250427
12.8346	12.6772	-0.000126089	0.00343169
12.835	12.6767	-0.00048607	0.00418582
12.8355	12.6762	-0.000900733	0.00348012
12.836	12.6758	-0.000609506	0.00239921
12.8364	12.6753	0.000908036	0.0025935
12.8369	12.6748	-6.19369e-05	0.00345177
12.8374	12.6743	-0.000454395	0.0043275
12.8379	12.6739	-0.000893064	0.00352216
12.8383	12.6734	-0.000566631	0.00231825
12.8388	12.6729	0.000944847	0.00262914
12.8393	12.6725	-8.00751e-05	0.00339932
12.8397	12.672	-0.000498341	0.00429029
12.8402	12.6715	-0.000812771	0.00350938
12.8407	12.671	-0.00060264	0.00233989
12.8412	12.6706	0.000897567	0.00264627
12.8416	12.6701	-7.70075e-05	0.00348511
12.8421	12.6696	-0.000634118	0.00419795
12.8426	12.6692	-0.000817105	0.00357337
12.8431	12.6687	-0.000567362	0.00228883
12.8435	12.6683	0.0010098	0.00277721
12.844	12.6678	-5.91368e-05	0.00347185
12.8445	12.6673	-0.000600375	0.0041782
12.8449	12.6668	-0.00077423	0.00341129
12.8454	12.6664	-0.000687267	0.00219058
12.8459	12.6659	0.000951517	0.00273764
12.8464	12.6654	-0.000246458	0.00355329
12.8468	12.6649	-0.00065379	0.00422195
12.8473	12.6644	-0.000700803	0.00342842
12.8478	12.664	-0.000729678	0.00205546
12.8482	12.6635	0.000916507	0.00267741
12.8487	12.663	-0.000105882	0.00367629
12.8492	12.6626	-0.000832711	0.00411002
12.8497	12.6621	-0.000661192	0.00340662
12.8501	12.6617	-0.000603371	0.00208971
12.8506	12.6612	0.000994928	0.00269781
12.8511	12.6607	-0.000161634	0.00371301
12.8516	12.6602	-0.000870057	0.00396072
12.852	12.6598	-0.000629517	0.00339154
12.8525	12.6593	-0.000694668	0.00222344
12.853	12.6588	0.000926976	0.00254556
12.8534	12.6584	-0.000229389	0.00356124
12.8539	12.6579	-0.000935012	0.00404184
12.8544	12.6574	-0.000603639	0.00340695
12.8549	12.6569	-0.000598038	0.00213609
12.8553	12.6565	0.000894766	0.00277705
12.8558	12.656	-8.3874e-05	0.00370088
12.8563	12.6555	-0.00104491	0.00410658
12.8567	12.655	-0.000518815	0.00328051
12.8572	12.6545	-0.00057043	0.00219091
12.8577	12.6541	0.00079967	0.00282655
12.8582	12.6536	-0.000106417	0.00381797
12.8586	12.6531	-0.00109733	0.00411125
12.8591	12.6527	-0.000458462	0.00316767
12.8596	12.6522	-0.000461262	0.00219681
12.8601	12.6517	0.000814206	0.00284367
12.8605	12.6513	-9.97471e-05	0.00380175
12.861	12.6508	-0.00121697	0.00395712
12.8615	12.6503	-0.000477403	0.00327789
12.8619	12.6498	-0.0004822	0.00212069
12.8624	12.6494	0.000739584	0.00292963
12.8629	12.6489	1.4486e-05	0.00384551
12.8634	12.6484	-0.00119169	0.0039962
12.8638	12.6479	-0.000504209	0.00326232
12.8643	12.6475	-0.000313749	0.00216288
12.8648	12.647	0.000707571	0.00284228
12.8652	12.6465	-2.30567e-05	0.0037879
12.8657	12.646	-0.00120956	0.00405348
12.8662	12.6455	-0.000472997	0.00320611
12.8667	12.6451	-0.000352897	0.00225302
12.8671	12.6446	0.000620144	0.00282204
12.8676	12.6441	1.76248e-05	0.00381544
12.8681	12.6436	-0.00124511	0.0039118
12.8686	12.6432	-0.000413981	0.00307614
12.869	12.6427	-0.000149631	0.00208364
12.8695	12.6423	0.000541188	0.00289505
12.87	12.6418	-2.63918e-05	0.003954
12.8704	12.6413	-0.00132893	0.00399464
12.8709	12.6408	-0.000372836	0.00308236
12.8714	12.6404	-9.08118e-05	0.00217952
12.8719	12.6399	0.000622213	0.00287685
12.8723	12.6394	3.5228e-05	0.00404012
12.8728	12.639	-0.00130132	0.00382167
12.8733	12.6385	-0.000438986	0.00302288
12.8737	12.6381	-8.82792e-05	0.00221394
12.8742	12.6376	0.000453494	0.00286252
12.8747	12.6371	1.11508e-05	0.00410706
12.8752	12.6366	-0.00147572	0.00380503
12.8756	12.6361	-0.00038664	0.00311302
12.8761	12.6357	-1.35864e-05	0.00205841
12.8766	12.6352	0.000414881	0.00294987
12.8771	12.6347	0.000133124	0.00405257
12.8775	12.6342	-0.00147978	0.0038687
12.878	12.6338	-0.000375369	0.00297413
12.8785	12.6333	-1.38539e-05	0.00212364
12.8789	12.6328	0.000303912	0.00295003
12.8794	12.6324	0.000159734	0.00421433
12.8799	12.6319	-0.00147338	0.00374087
12.8804	12.6314	-0.000457196	0.00299174
12.8808	12.631	0.000108851	0.00214683
12.8813	12.6305	0.000320784	0.00293897
12.8818	12.63	-6.98735e-06	0.00416606
12.8822	12.6295	-0.00156287	0.00376111
12.8827	12.6291	-0.000463598	0.0028317
12.8832	12.6286	-2.38592e-06	0.00216428
12.8837	12.6281	0.000156666	0.00293848
12.8841	12.6277	0.000182206	0.00418786
12.8846	12.6272	-0.00157821	0.00381732
12.8851	12.6267	-0.000269536	0.00287841
12.8856	12.6262	0.000106586	0.00223729
12.886	12.6258	0.000188341	0.00313793
12.8865	12.6253	0.000156666	0.00412682
12.887	12.6248	-0.00155701	0.00372562
12.8874	12.6243	-0.000330086	0.00276164
12.8879	12.6238	0.000173806	0.0022622
12.8884	12.6234	0.000142595	0.00299034
12.8889	12.6229	7.89059e-05	0.00422474
12.8893	12.6224	-0.00155034	0.00366679
12.8898	12.622	-0.0004682	0.0028295
12.8903	12.6215	0.000308781	0.00217813
12.8907	12.621	4.56971e-05	0.00302148
12.8912	12.6205	0.000182474	0.00422523
12.8917	12.62	-0.00137322	0.00374259
12.8922	12.6196	-0.000463598	0.00278
12.8926	12.6191	0.000366334	0.00224975
12.8931	12.6187	3.59593e-05	0.00302443
12.8936	12.6182	3.74931e-05	0.00435101
12.8941	12.6177	-0.00149079	0.003694
12.8945	12.6172	-0.000484537	0.0027101
12.895	12.6168	0.000506642	0.00223418
12.8955	12.6163	7.1308e-05	0.0030786
12.8959	12.6158	-3.99286e-05	0.004396
12.8964	12.6153	-0.00140002	0.00365605
12.8969	12.6148	-0.000328552	0.00267757
12.8974	12.6144	0.00049924	0.00233849
12.8978	12.6139	-8.52115e-06	0.00313916
12.8983	12.6134	7.35192e-06	0.00436937
12.8988	12.613	-0.00127245	0.00359812
