# 1304     AichiSR QXAFS
# Start     : 8.9544
# End       : 9.0544
# Dir       : Forward
# Points    : 300
# ScanTime  : 1.01549
# Date      : 13.04.23 23:24
# Ring Cur. : 0.9[mA]
12.7557	12.7562	6.51728e-05	0.00382887
12.7562	12.7557	-0.00111113	0.00416214
12.7566	12.7552	-0.000524879	0.00322077
12.7571	12.7548	-0.000224253	0.00216756
12.7576	12.7543	0.000735982	0.00280679
12.7581	12.7538	0.000126721	0.00385018
12.7585	12.7534	-0.00117095	0.0039073
12.759	12.7529	-0.000382039	0.00325035
12.7595	12.7524	-0.000270535	0.00219526
12.7599	12.752	0.000676627	0.00286359
12.7604	12.7515	-3.86623e-05	0.00400275
12.7609	12.751	-0.00117889	0.004077
12.7614	12.7506	-0.000393507	0.00310351
12.7618	12.7501	-0.000199445	0.00216149
12.7623	12.7496	0.00062248	0.00283605
12.7628	12.7492	0.000189144	0.00403233
12.7632	12.7487	-0.00114101	0.0039708
12.7637	12.7482	-0.000269732	0.00314432
12.7642	12.7478	-0.000277936	0.00228867
12.7647	12.7473	0.000553726	0.0029016
12.7651	12.7468	0.000130324	0.00419516
12.7656	12.7463	-0.00141283	0.00398391
12.7661	12.7459	-0.000269001	0.00320127
12.7666	12.7454	4.55181e-06	0.00228056
12.767	12.7449	0.000471899	0.00299158
12.7675	12.7444	0.00019988	0.00405831
12.768	12.744	-0.00143097	0.00387353
12.7684	12.7435	-0.000284072	0.00319972
12.7689	12.743	5.82351e-05	0.00229973
12.7694	12.7426	0.000486435	0.00298036
12.7699	12.7421	0.000199613	0.00426039
12.7703	12.7416	-0.00137215	0.00378119
12.7708	12.7412	-0.000172104	0.00299609
12.7713	12.7407	0.000173538	0.00229801
12.7717	12.7402	0.00039034	0.00308762
12.7722	12.7397	0.000223155	0.00408355
12.7727	12.7393	-0.00158895	0.00381421
12.7732	12.7388	-0.000301746	0.00304172
12.7736	12.7383	0.000121656	0.00230408
12.7741	12.7379	0.000333322	0.00289505
12.7746	12.7374	0.00034586	0.0042263
12.7751	12.7369	-0.00135067	0.0036976
12.7755	12.7364	-0.000257729	0.0030305
12.776	12.7359	0.000157398	0.00226065
12.7765	12.7355	0.000414613	0.00299625
12.7769	12.735	0.000214683	0.00425448
12.7774	12.7345	-0.00146904	0.00373652
12.7779	12.734	-0.000241392	0.00290595
12.7784	12.7335	0.000208548	0.00239331
12.7788	12.7331	0.000345592	0.00300854
12.7793	12.7326	0.000310315	0.00425448
12.7798	12.7321	-0.00152219	0.00375316
12.7802	12.7317	-0.000268466	0.00294036
12.7807	12.7312	0.000339457	0.00233398
12.7812	12.7307	0.000289109	0.0030319
12.7817	12.7302	0.000350194	0.0043742
12.7821	12.7298	-0.00148105	0.00376315
12.7826	12.7293	-0.000344158	0.00281302
12.7831	12.7288	0.000403609	0.00230145
12.7836	12.7284	0.000281172	0.003139
12.784	12.7279	0.000221354	0.00440985
12.7845	12.7274	-0.0014177	0.00376127
12.785	12.727	-0.00033829	0.00269577
12.7854	12.7265	0.000414881	0.00250664
12.7859	12.726	0.000192675	0.0030895
12.7864	12.7255	4.31645e-05	0.00425539
12.7869	12.7251	-0.00118962	0.00371038
12.7873	12.7246	-0.000362563	0.00273829
12.7878	12.7241	0.000497172	0.00247174
12.7883	12.7236	0.000137458	0.00308966
12.7887	12.7232	4.16307e-05	0.00427677
12.7892	12.7227	-0.00124538	0.00363704
12.7897	12.7222	-0.000362296	0.00273673
12.7902	12.7218	0.000577732	0.00239298
12.7906	12.7213	0.000105052	0.00310072
12.7911	12.7208	-9.25246e-06	0.00418131
12.7916	12.7204	-0.00129392	0.00363344
12.7921	12.7199	-0.000356696	0.00269035
12.7925	12.7194	0.00061021	0.00243019
12.793	12.719	4.28431e-06	0.00328207
12.7935	12.7185	-9.87483e-05	0.00429652
12.7939	12.718	-0.00123257	0.00364729
12.7944	12.7176	-0.000430586	0.00256875
12.7949	12.7171	0.000701971	0.00250492
12.7954	12.7166	-1.58342e-06	0.00325126
12.7958	12.7161	-0.000125358	0.00431553
12.7963	12.7157	-0.00102371	0.00362147
12.7968	12.7152	-0.000302477	0.00260177
12.7972	12.7147	0.000810603	0.00256424
12.7977	12.7142	-6.50045e-05	0.00332132
12.7982	12.7137	-0.000202048	0.00431676
12.7987	12.7133	-0.00103264	0.00363532
12.7991	12.7128	-0.000511075	0.00252483
12.7996	12.7123	0.000738782	0.00256113
12.8001	12.7119	3.4693e-05	0.00328427
12.8006	12.7114	-0.000244193	0.00423629
12.801	12.7109	-0.00100683	0.00367097
12.8015	12.7105	-0.000504209	0.00252516
12.802	12.71	0.0010228	0.00258883
12.8024	12.7095	5.64338e-05	0.00323413
12.8029	12.7091	-0.000255464	0.00428063
12.8034	12.7086	-0.000969023	0.00360795
12.8039	12.7081	-0.000557624	0.00229924
12.8043	12.7076	0.000827743	0.00260751
12.8048	12.7072	9.15323e-06	0.00342547
12.8053	12.7067	-0.000371766	0.00426334
12.8057	12.7062	-0.000830446	0.00352715
12.8062	12.7057	-0.000516212	0.00242847
12.8067	12.7052	0.000915437	0.00258866
12.8072	12.7047	-0.000171105	0.00345956
12.8076	12.7043	-0.000482271	0.00427719
12.8081	12.7038	-0.000883594	0.00353896
12.8086	12.7033	-0.000539219	0.00229613
12.8091	12.7029	0.000962522	0.00252
12.8095	12.7024	2.60251e-05	0.00350347
12.81	12.7019	-0.000644588	0.00414754
12.8105	12.7015	-0.000784895	0.00360091
12.8109	12.701	-0.00054382	0.00223525
12.8114	12.7005	0.00105095	0.00257326
12.8119	12.7	-9.79458e-05	0.00357649
12.8124	12.6996	-0.000508275	0.00410937
12.8128	12.6991	-0.000703407	0.00356403
12.8133	12.6987	-0.000568361	0.00229613
12.8138	12.6982	0.00103795	0.00277115
12.8142	12.6977	2.42238e-05	0.00354986
12.8147	12.6972	-0.000728947	0.00431348
12.8152	12.6968	-0.000583432	0.00359017
12.8157	12.6963	-0.000739684	0.00220755
12.8161	12.6958	0.00105655	0.00280196
12.8166	12.6953	-4.32637e-05	0.00362631
12.8171	12.6949	-0.000660461	0.00410797
12.8176	12.6944	-0.000690798	0.00354207
12.818	12.6939	-0.000601373	0.0021937
12.8185	12.6934	0.000992663	0.00280319
12.819	12.693	-8.08776e-05	0.00369014
12.8194	12.6925	-0.00086419	0.00417336
12.8199	12.6921	-0.000546888	0.00345784
12.8204	12.6916	-0.000579098	0.00220755
12.8209	12.6911	0.000953051	0.0027691
12.8213	12.6906	3.13578e-05	0.00377872
12.8218	12.6902	-0.000779028	0.00414829
12.8223	12.6897	-0.000519279	0.00344259
12.8227	12.6892	-0.000619512	0.00222967
12.8232	12.6888	0.000964055	0.00283015
12.8237	12.6883	8.71099e-05	0.0038542
12.8242	12.6878	-0.000922474	0.00413632
12.8246	12.6873	-0.000370964	0.00338982
12.8251	12.6869	-0.000559693	0.00219509
12.8256	12.6864	0.000890433	0.00275558
12.8261	12.6859	-4.38354e-06	0.00378479
12.8265	12.6854	-0.000878993	0.00402594
12.827	12.685	-0.000422382	0.00334778
12.8275	12.6845	-0.000383573	0.00214608
12.8279	12.684	0.000941048	0.00285817
12.8284	12.6835	5.18323e-05	0.00394155
12.8289	12.6831	-0.0010007	0.00414985
12.8294	12.6826	-0.00038944	0.00332706
12.8298	12.6821	-0.000352094	0.00218903
12.8303	12.6817	0.000819342	0.00287825
12.8308	12.6812	0.000132857	0.00384862
12.8312	12.6807	-0.00124584	0.00413009
12.8317	12.6802	-0.000485535	0.0032402
12.8322	12.6798	-0.000349026	0.00215059
12.8327	12.6793	0.000775593	0.00282687
12.8331	12.6788	6.38353e-05	0.003841
12.8336	12.6784	-0.00114054	0.00387648
12.8341	12.6779	-0.000417049	0.00321996
12.8346	12.6774	-0.000251862	0.00223278
12.835	12.6769	0.000578731	0.00283277
12.8355	12.6764	0.000144128	0.00398031
12.836	12.676	-0.00124557	0.00406798
12.8364	12.6755	-0.00029941	0.00318291
12.8369	12.675	-0.000261332	0.0022468
12.8374	12.6745	0.000560325	0.00287653
12.8379	12.674	0.000228024	0.00403636
12.8383	12.6736	-0.00117942	0.00388598
12.8388	12.6731	-0.000345959	0.00323134
12.8393	12.6726	-0.000136024	0.00223713
12.8397	12.6722	0.000416682	0.0029234
12.8402	12.6717	0.000139527	0.00396662
12.8407	12.6712	-0.00132333	0.0039481
12.8412	12.6708	-0.000281806	0.00305058
12.8416	12.6703	-7.75425e-05	0.00225769
12.8421	12.6698	0.000571597	0.00288152
12.8426	12.6694	0.000282439	0.00409879
12.8431	12.6689	-0.00134968	0.00387664
12.8435	12.6684	-0.000321418	0.00303066
12.844	12.668	3.018e-06	0.00210356
12.8445	12.6675	0.000502308	0.00301214
12.8449	12.667	3.92944e-05	0.00415033
12.8454	12.6666	-0.0015276	0.00382027
12.8459	12.6661	-0.000287942	0.00289554
12.8464	12.6656	2.483e-06	0.00223246
12.8468	12.6651	0.000344058	0.00290627
12.8473	12.6646	0.00018094	0.00409289
12.8478	12.6642	-0.00136068	0.00376283
12.8482	12.6637	-0.000345156	0.00290251
12.8487	12.6632	8.86437e-05	0.00223402
12.8492	12.6628	0.000402611	0.00296355
12.8497	12.6623	0.000224154	0.0042453
12.8501	12.6618	-0.00146805	0.00381142
12.8506	12.6614	-0.000292276	0.00293709
12.8511	12.6609	0.000209815	0.00225614
12.8516	12.6604	0.000323584	0.00293151
12.852	12.6599	0.000271702	0.00417787
12.8525	12.6595	-0.00138162	0.0037784
12.853	12.659	-0.000197715	0.00284056
12.8534	12.6586	0.000266369	0.00236233
12.8539	12.6581	0.000203679	0.00302787
12.8544	12.6576	0.00019881	0.00308687
12.8549	12.6571	-0.00152453	0.00393204
12.8553	12.6567	-0.000258532	0.00296232
12.8558	12.6562	0.00042535	0.00243748
12.8563	12.6557	0.000139259	0.00313605
12.8567	12.6552	0.000189144	0.00443804
12.8572	12.6547	-0.00129546	0.00370834
12.8577	12.6543	-0.000326287	0.00293086
12.8582	12.6538	0.000244361	0.00231358
12.8586	12.6533	0.000138261	0.0030727
12.8591	12.6529	0.00016767	0.00430414
12.8596	12.6524	-0.00141049	0.00364311
12.8601	12.6519	-0.000276938	0.00273174
12.8605	12.6515	0.000430219	0.0023262
12.861	12.651	5.69688e-05	0.00300903
12.8615	12.6505	0.000119124	0.00426645
12.8619	12.65	-0.00133353	0.00360886
12.8624	12.6495	-0.000407579	0.0025731
12.8629	12.6491	0.000548055	0.00230719
12.8634	12.6486	0.000100914	0.00313981
12.8638	12.6481	0.000137726	0.00432266
12.8643	12.6477	-0.00124511	0.00367146
12.8648	12.6472	-0.000282805	0.00262136
12.8652	12.6467	0.00062808	0.00239921
12.8657	12.6462	0.000139259	0.00314539
12.8662	12.6457	-5.34654e-05	0.00439305
12.8667	12.6453	-0.00112447	0.00359001
12.8671	12.6448	-0.000320615	0.0028331
12.8676	12.6443	0.000644685	0.00246567
12.8681	12.6438	-3.6861e-05	0.00325732
12.8686	12.6434	-0.00011175	0.00442853
12.869	12.6429	-0.00111186	0.00356354
12.8695	12.6424	-0.000385107	0.00262898
12.87	12.642	0.000664695	0.0023466
12.8704	12.6415	5.39012e-05	0.0032701
12.8709	12.641	-3.81273e-05	0.00424638
12.8714	12.6406	-0.00104671	0.00357804
12.8719	12.6401	-0.000461529	0.00244371
12.8723	12.6396	0.000779196	0.00248156
12.8728	12.6392	-9.98377e-06	0.00326355
12.8733	12.6387	-0.000252397	0.00437093
12.8737	12.6382	-0.00100917	0.00369293
12.8742	12.6378	-0.000391706	0.00253868
12.8747	12.6373	0.000891699	0.00245837
12.8752	12.6368	9.5314e-05	0.00339245
12.8756	12.6364	-0.000238325	0.00434135
12.8761	12.6359	-0.00110166	0.00362582
12.8766	12.6354	-0.000341357	0.00247083
12.8771	12.6349	0.000899832	0.00263832
12.8775	12.6344	6.92392e-05	0.00339261
12.878	12.634	-0.000246261	0.00434028
12.8785	12.6335	-0.00088206	0.0035964
12.8789	12.633	-0.000414713	0.00242723
12.8794	12.6326	0.000969923	0.00261202
12.8799	12.6321	-5.55342e-05	0.00339589
12.8804	12.6316	-0.000444658	0.00435584
12.8808	12.6312	-0.000865456	0.00343932
12.8813	12.6307	-0.00039884	0.00241445
12.8818	12.6302	0.000835144	0.00265078
12.8822	12.6297	-0.000114086	0.00349069
12.8827	12.6293	-0.000529284	0.00421229
12.8832	12.6288	-0.000805102	0.00364606
12.8837	12.6283	-0.000404779	0.00237323
12.8841	12.6279	0.00110536	0.00270715
12.8846	12.6274	2.22262e-05	0.00339293
12.8851	12.6269	-0.000564562	0.0042249
12.8856	12.6264	-0.000704139	0.00361804
12.886	12.6259	-0.000554557	0.00237881
12.8865	12.6255	0.00103381	0.0026248
12.887	12.625	-5.09328e-05	0.0035578
12.8874	12.6245	-0.000586035	0.00433324
12.8879	12.624	-0.000714875	0.00353241
12.8884	12.6236	-0.000657857	0.00225163
12.8889	12.6231	0.00114397	0.00275165
12.8893	12.6226	-3.17958e-05	0.00364295
12.8898	12.6222	-0.000743286	0.00418926
12.8903	12.6217	-0.000610844	0.00340195
12.8907	12.6212	-0.000643321	0.00223278
12.8912	12.6207	0.00102947	0.00278312
12.8917	12.6202	-4.07311e-05	0.00355158
12.8922	12.6198	-0.000709471	0.004136
12.8926	12.6193	-0.000687534	0.00347062
12.8931	12.6188	-0.000651454	0.00206963
12.8936	12.6184	0.00103941	0.00272567
12.8941	12.6179	-6.62708e-05	0.00363221
12.8945	12.6174	-0.000890996	0.00410486
12.895	12.617	-0.000520813	0.00342514
12.8955	12.6165	-0.000593437	0.00220197
12.8959	12.616	0.000965054	0.00285285
12.8964	12.6155	-1.0055e-05	0.00372095
12.8969	12.6151	-0.000871324	0.00403529
12.8974	12.6146	-0.000522614	0.00340007
12.8978	12.6141	-0.000576298	0.00218763
12.8983	12.6136	0.000950447	0.0028644
12.8988	12.6132	4.2897e-05	0.00377077
