# 1304     AichiSR QXAFS
# Start     : 8.9544
# End       : 9.0544
# Dir       : Forward
# Points    : 300
# ScanTime  : 1.01549
# Date      : 13.04.23 22:42
# Ring Cur. : 0.9[mA]
12.7557	12.7559	-3.30621e-05	0.00363377
12.7562	12.7554	-0.00103904	0.00390188
12.7566	12.755	-0.00051548	0.00335884
12.7571	12.7545	-0.000430318	0.00206013
12.7576	12.754	0.000705038	0.00270543
12.7581	12.7535	-5.63367e-05	0.00370538
12.7585	12.7531	-0.00113667	0.00401037
12.759	12.7526	-0.000400908	0.00324503
12.7595	12.7521	-0.000386373	0.00208504
12.7599	12.7517	0.000775861	0.00279589
12.7604	12.7512	-8.72092e-05	0.00372219
12.7609	12.7507	-0.00108966	0.00398096
12.7614	12.7503	-0.00050881	0.00312236
12.7618	12.7498	-0.000312215	0.00204907
12.7623	12.7493	0.000721643	0.00279246
12.7628	12.7489	-1.04843e-06	0.00373013
12.7632	12.7484	-0.00118169	0.00391213
12.7637	12.7479	-0.000522079	0.00320144
12.7642	12.7475	-0.00044826	0.00208144
12.7647	12.747	0.000778197	0.00279262
12.7651	12.7465	2.08887e-05	0.0038528
12.7656	12.746	-0.00127958	0.00399137
12.7661	12.7456	-0.000450525	0.00316439
12.7666	12.7451	-0.000217387	0.00205734
12.767	12.7446	0.000705769	0.00278156
12.7675	12.7441	4.05607e-05	0.00384255
12.768	12.7437	-0.00130412	0.00381125
12.7684	12.7432	-0.000440324	0.00319693
12.7689	12.7427	-0.00027947	0.0020852
12.7694	12.7423	0.00055806	0.00281892
12.7699	12.7418	-3.7396e-05	0.00382527
12.7703	12.7413	-0.0013172	0.00391417
12.7708	12.7408	-0.000387639	0.00302534
12.7713	12.7404	-0.000182376	0.00210855
12.7717	12.7399	0.000585401	0.00283498
12.7722	12.7394	2.75589e-05	0.00397317
12.7727	12.739	-0.00116562	0.00387664
12.7732	12.7385	-0.000435919	0.00306942
12.7736	12.738	-0.000156766	0.00218436
12.7741	12.7376	0.000590003	0.00287202
12.7746	12.7371	8.79124e-05	0.00390622
12.7751	12.7366	-0.00142176	0.00385608
12.7755	12.7361	-0.000448456	0.00295545
12.776	12.7356	-0.000111019	0.00218141
12.7765	12.7352	0.000571329	0.00282671
12.7769	12.7347	8.2776e-05	0.00399899
12.7774	12.7342	-0.00134327	0.00378946
12.7779	12.7337	-0.000427251	0.00298363
12.7784	12.7332	-9.87483e-05	0.00228384
12.7788	12.7328	0.000578731	0.00285768
12.7793	12.7323	7.0773e-05	0.00410379
12.7798	12.7318	-0.00136168	0.00377856
12.7802	12.7314	-0.000479935	0.00303796
12.7807	12.7309	-0.000142961	0.00223745
12.7812	12.7304	0.000489306	0.00290906
12.7817	12.7299	0.000154865	0.00417541
12.7821	12.7295	-0.00143016	0.00379864
12.7826	12.729	-0.000329087	0.00304484
12.7831	12.7285	5.55062e-06	0.00219509
12.7836	12.7281	0.000483902	0.00270838
12.784	12.7276	8.53086e-05	0.004037
12.7845	12.7271	-0.00139542	0.00382011
12.785	12.7267	-0.000333688	0.00294519
12.7854	12.7262	-3.86623e-05	0.00210405
12.7859	12.7257	0.000382671	0.00281957
12.7864	12.7252	0.000181939	0.00409273
12.7869	12.7247	-0.00148438	0.00374243
12.7873	12.7243	-0.00029001	0.00301182
12.7878	12.7238	-5.72104e-06	0.00221099
12.7883	12.7233	0.00021595	0.00284212
12.7887	12.7229	0.000184542	0.00419704
12.7892	12.7224	-0.0015506	0.00378028
12.7897	12.7219	-0.000416247	0.00296822
12.7902	12.7215	0.000156399	0.00220959
12.7906	12.721	0.000244361	0.00293225
12.7911	12.7205	0.000168669	0.00414427
12.7916	12.72	-0.00150306	0.00369621
12.7921	12.7196	-0.000322417	0.00300854
12.7925	12.7191	7.63733e-05	0.00229334
12.793	12.7187	0.000376536	0.00299576
12.7935	12.7182	0.000164335	0.00420745
12.7939	12.7177	-0.00143277	0.00372112
12.7944	12.7172	-0.000293274	0.00298256
12.7949	12.7168	0.000145395	0.0022032
12.7954	12.7163	0.000356596	0.00303689
12.7958	12.7158	0.000175339	0.00417648
12.7963	12.7153	-0.00146751	0.00373947
12.7968	12.7149	-0.000365363	0.00287358
12.7972	12.7144	0.000271969	0.00226564
12.7977	12.7139	0.000220819	0.00293848
12.7982	12.7134	0.000112186	0.00421605
12.7987	12.713	-0.00142123	0.00362803
12.7991	12.7125	-0.000335222	0.00285473
12.7996	12.712	7.0238e-05	0.00231857
12.8001	12.7116	0.000236157	0.00295314
12.8006	12.7111	0.000207817	0.00427891
12.801	12.7106	-0.00153327	0.00364139
12.8015	12.7101	-0.000333421	0.00286858
12.802	12.7097	0.000258165	0.00217566
12.8024	12.7092	0.000221086	0.00290922
12.8029	12.7087	0.000296778	0.00420917
12.8034	12.7083	-0.00135761	0.00367376
12.8039	12.7078	-0.000452862	0.00280803
12.8043	12.7073	0.000220087	0.00224819
12.8048	12.7068	0.000142862	0.00303533
12.8053	12.7064	0.000122655	0.00415484
12.8057	12.7059	-0.00139876	0.00359452
12.8062	12.7054	-0.000313749	0.0028957
12.8067	12.7049	0.00035146	0.00241617
12.8072	12.7044	0.000108851	0.00299421
12.8076	12.704	0.000166404	0.00429013
12.8081	12.7035	-0.00146418	0.00368236
12.8086	12.703	-0.000303012	0.00280835
12.8091	12.7026	0.000436354	0.00237119
12.8095	12.7021	7.97084e-05	0.0031267
12.81	12.7016	0.000142327	0.00432127
12.8105	12.7011	-0.00136014	0.00356559
12.8109	12.7007	-0.000315283	0.00257793
12.8114	12.7002	0.000437621	0.00225442
12.8119	12.6997	5.15648e-05	0.00310228
12.8124	12.6993	8.65749e-05	0.00419967
12.8128	12.6988	-0.0013374	0.00365245
12.8133	12.6983	-0.000374834	0.00270994
12.8138	12.6979	0.000477767	0.00220615
12.8142	12.6974	9.19788e-05	0.00300387
12.8147	12.6969	-7.70075e-05	0.00428218
12.8152	12.6965	-0.00119649	0.00363237
12.8157	12.696	-0.000407044	0.00264004
12.8161	12.6955	0.000564927	0.00239142
12.8166	12.695	-1.7189e-05	0.00305262
12.8171	12.6945	-3.22596e-05	0.00419532
12.8176	12.6941	-0.0013374	0.00357353
12.818	12.6936	-0.000357962	0.00252671
12.8185	12.6931	0.00054472	0.00241478
12.819	12.6927	-4.35312e-05	0.00309761
12.8194	12.6922	-3.30621e-05	0.00428857
12.8199	12.6917	-0.00128806	0.00365761
12.8204	12.6913	-0.000505742	0.00269003
12.8209	12.6908	0.000577465	0.00224057
12.8213	12.6903	-6.37382e-05	0.00319054
12.8218	12.6898	-0.000222452	0.00415533
12.8223	12.6894	-0.00117455	0.00370957
12.8227	12.6889	-0.000482468	0.00258555
12.8232	12.6885	0.000598938	0.00239454
12.8237	12.688	-2.58568e-05	0.00322168
12.8242	12.6875	1.0687e-05	0.00431692
12.8246	12.687	-0.00115228	0.00354953
12.8251	12.6866	-0.000416247	0.00248296
12.8256	12.6861	0.000642687	0.00249386
12.8261	12.6856	5.02985e-05	0.00319537
12.8265	12.6851	-0.000141427	0.00423269
12.827	12.6846	-0.00113901	0.00356805
12.8275	12.6842	-0.00036663	0.0025032
12.8279	12.6837	0.000661557	0.00248935
12.8284	12.6832	-1.99891e-05	0.00315924
12.8289	12.6827	-0.000240857	0.00424203
12.8294	12.6823	-0.00115408	0.00363688
12.8298	12.6818	-0.000394773	0.00244264
12.8303	12.6814	0.000653424	0.00237848
12.8308	12.6809	-0.000127623	0.0032016
12.8312	12.6804	-0.000177508	0.00417943
12.8317	12.6799	-0.00110933	0.00353773
12.8322	12.6795	-0.000449794	0.00235111
12.8327	12.679	0.000684831	0.00251254
12.8331	12.6785	-4.21937e-05	0.00313637
12.8336	12.6781	-0.000390172	0.00421679
12.8341	12.6776	-0.00103137	0.00362164
12.8346	12.6771	-0.00046993	0.00243657
12.835	12.6766	0.000819342	0.0025309
12.8355	12.6761	-8.00751e-05	0.00330714
12.836	12.6757	-0.000215318	0.00411313
12.8364	12.6752	-0.00113287	0.00357928
12.8369	12.6747	-0.000440787	0.00230408
12.8374	12.6742	0.000868424	0.00245338
12.8379	12.6737	-9.41469e-05	0.00323397
12.8383	12.6733	-0.000303012	0.00418115
12.8388	12.6728	-0.00104491	0.00343932
12.8393	12.6723	-0.000515677	0.00237865
12.8397	12.6719	0.000822945	0.00241773
12.8402	12.6714	-1.79915e-05	0.00334
12.8407	12.6709	-0.000401711	0.00430586
12.8412	12.6705	-0.000955683	0.00343825
12.8416	12.67	-0.000501141	0.00232882
12.8421	12.6695	0.000862557	0.00247345
12.8426	12.6691	-8.00751e-05	0.00317218
12.8431	12.6686	-0.000402442	0.00414362
12.8435	12.6681	-0.000929876	0.00346857
12.844	12.6677	-0.000491938	0.00233538
12.8445	12.6672	0.000914171	0.0024909
12.8449	12.6667	-8.95455e-05	0.00338794
12.8454	12.6662	-0.000488335	0.00425539
12.8459	12.6658	-0.000863387	0.00350438
12.8464	12.6653	-0.000666792	0.00231481
12.8468	12.6648	0.00096632	0.00258588
12.8473	12.6643	-2.9727e-05	0.00347856
12.8478	12.6639	-0.000527947	0.00412526
12.8482	12.6634	-0.000805905	0.00356559
12.8487	12.6629	-0.000627448	0.00235594
12.8492	12.6625	0.000952516	0.00269609
12.8497	12.662	-0.000136826	0.0033713
12.8501	12.6615	-0.000580435	0.004195
12.8506	12.6611	-0.000859053	0.00348447
12.8511	12.6606	-0.000668058	0.00224164
12.8516	12.6601	0.000957385	0.00266479
12.852	12.6596	-0.000140964	0.00353117
12.8525	12.6592	-0.000730213	0.00416418
12.853	12.6587	-0.000768291	0.00336368
12.8534	12.6582	-0.000619512	0.00220615
12.8539	12.6578	0.000952784	0.00279213
12.8544	12.6573	-5.80668e-05	0.00357149
12.8549	12.6568	-0.000759356	0.00407217
12.8553	12.6563	-0.000650723	0.00338392
12.8558	12.6559	-0.000668593	0.00217083
12.8563	12.6554	0.000933575	0.00269625
12.8567	12.6549	-0.000116084	0.00344104
12.8572	12.6544	-0.000724613	0.00411297
12.8577	12.6539	-0.00069647	0.00339261
12.8582	12.6535	-0.000667862	0.00216927
12.8586	12.653	0.000953515	0.00264627
12.8591	12.6525	-0.000210984	0.00347577
12.8596	12.6521	-0.000702605	0.00424498
12.8601	12.6516	-0.000653523	0.00345972
12.8605	12.6511	-0.00067653	0.00220771
12.861	12.6507	0.000955584	0.00277705
12.8615	12.6502	-0.000136559	0.00348495
12.8619	12.6497	-0.000771359	0.0041346
12.8624	12.6492	-0.000637382	0.00340023
12.8629	12.6488	-0.000693937	0.00220197
12.8634	12.6483	0.000948182	0.00267322
12.8638	12.6478	-3.71285e-05	0.00357911
12.8643	12.6473	-0.000796898	0.00408838
12.8648	12.6469	-0.000652988	0.0033305
12.8652	12.6464	-0.000631051	0.00211741
12.8657	12.6459	0.000953051	0.00264767
12.8662	12.6454	-0.00013449	0.00349069
12.8667	12.6449	-0.000810506	0.004077
12.8671	12.6445	-0.000698003	0.0034194
12.8676	12.644	-0.000659658	0.00205809
12.8681	12.6435	0.000955316	0.00270216
12.8686	12.6431	-3.99286e-05	0.00359017
12.869	12.6426	-0.00086979	0.00403185
12.8695	12.6421	-0.000624113	0.00327944
12.87	12.6417	-0.000605172	0.00219075
12.8704	12.6412	0.000961987	0.00270495
12.8709	12.6407	-0.000114621	0.00356559
12.8714	12.6403	-0.000940345	0.00413133
12.8719	12.6398	-0.000546691	0.00338966
12.8723	12.6393	-0.000479668	0.00202432
12.8728	12.6389	0.000862485	0.00275091
12.8733	12.6384	-0.000125091	0.00362271
12.8737	12.6379	-0.000914805	0.00413944
12.8742	12.6375	-0.000519814	0.00345054
12.8747	12.637	-0.000478669	0.00205095
12.8752	12.6365	0.000814473	0.00272412
12.8756	12.636	-0.000200978	0.00363688
12.8761	12.6356	-0.00115201	0.0040275
12.8766	12.6351	-0.000586035	0.00334902
12.8771	12.6346	-0.000583432	0.00209561
12.8775	12.6341	0.000913101	0.00280835
12.878	12.6336	-6.29357e-05	0.00367129
12.8785	12.6332	-0.00111267	0.00408494
12.8789	12.6327	-0.000460994	0.00331165
12.8794	12.6323	-0.000310681	0.0022155
12.8799	12.6318	0.000820341	0.00278827
12.8804	12.6313	3.92944e-05	0.00380658
12.8808	12.6308	-0.000973821	0.0041251
12.8813	12.6304	-0.000487337	0.00330247
12.8818	12.6299	-0.000476333	0.00210839
12.8822	12.6294	0.00076359	0.00279246
12.8827	12.629	-3.37934e-05	0.00366507
12.8832	12.6285	-0.00120443	0.00396039
12.8837	12.628	-0.000476065	0.00324396
12.8841	12.6276	-0.000442054	0.00215215
12.8846	12.6271	0.000688434	0.00287497
12.8851	12.6266	2.3225e-05	0.00382092
12.8856	12.6261	-0.00116915	0.00392286
12.886	12.6256	-0.000509612	0.00321282
12.8865	12.6252	-0.000459996	0.0021887
12.887	12.6247	0.000639084	0.00278328
12.8874	12.6242	-9.10793e-05	0.00378216
12.8879	12.6237	-0.00126225	0.00391852
12.8884	12.6232	-0.000450258	0.00311318
12.8889	12.6228	-0.00037997	0.00222344
12.8893	12.6223	0.000657223	0.0028594
12.8898	12.6219	-4.65104e-06	0.0038215
12.8903	12.6214	-0.00126532	0.0039445
12.8907	12.6209	-0.000380505	0.00316128
12.8912	12.6204	-0.000212518	0.00217625
12.8917	12.6199	0.000620679	0.00279868
12.8922	12.6195	2.52938e-05	0.00393097
12.8926	12.619	-0.00127018	0.00398825
12.8931	12.6185	-0.000481201	0.0031544
12.8936	12.6181	-0.000330888	0.00217394
12.8941	12.6176	0.000676431	0.00278295
12.8945	12.6171	0.000102448	0.0038687
12.895	12.6166	-0.00133641	0.00385157
12.8955	12.6162	-0.000401907	0.00302443
12.8959	12.6157	-0.000221185	0.00203989
12.8964	12.6152	0.000596869	0.00282499
12.8969	12.6147	0.000100914	0.00398858
12.8974	12.6143	-0.00132027	0.00394966
12.8978	12.6138	-0.000385035	0.00308966
12.8983	12.6133	-0.000112553	0.00216723
12.8988	12.6129	0.000508711	0.00283342
