# 1304     AichiSR QXAFS
# Start     : 8.9544
# End       : 9.0544
# Dir       : Backward
# Points    : 300
# ScanTime  : 1.01549
# Date      : 13.04.23 23:35
# Ring Cur. : 1[mA]
12.7557	12.6123	-0.000435455	0.00208053
12.7562	12.6128	0.0006953	0.002844
12.7566	12.6133	-4.78652e-05	0.00374586
12.7571	12.6137	-0.00116662	0.00400726
12.7576	12.6142	-0.000465596	0.00315924
12.7581	12.6147	-0.000352362	0.00210667
12.7585	12.6151	0.000608676	0.00273002
12.759	12.6156	-2.02566e-05	0.00382248
12.7595	12.6161	-0.00119756	0.00396163
12.7599	12.6166	-0.000439789	0.00314711
12.7604	12.617	-0.000212785	0.00219574
12.7609	12.6175	0.000471364	0.0027691
12.7614	12.618	5.92339e-05	0.00389484
12.7618	12.6185	-0.00132253	0.00402127
12.7623	12.6189	-0.0003705	0.00313497
12.7628	12.6194	-0.000196645	0.00209717
12.7632	12.6199	0.000549856	0.00281302
12.7637	12.6203	4.72309e-05	0.00395588
12.7642	12.6208	-0.00136294	0.00378028
12.7647	12.6213	-0.000409112	0.00313014
12.7651	12.6218	-0.000169303	0.00218624
12.7656	12.6222	0.000425083	0.00283589
12.7661	12.6227	7.12368e-05	0.00405569
12.7666	12.6232	-0.00133227	0.00381002
12.767	12.6236	-0.000361564	0.00306352
12.7675	12.6241	-8.95455e-05	0.00224057
12.768	12.6246	0.000415148	0.00273845
12.7684	12.6251	5.0566e-05	0.00398546
12.7689	12.6256	-0.00136348	0.00373341
12.7694	12.626	-0.000433118	0.00302878
12.7699	12.6265	-0.000115353	0.00216895
12.7703	12.627	0.000437353	0.00295249
12.7708	12.6275	0.000100183	0.00396055
12.7713	12.6279	-0.00145831	0.00379585
12.7717	12.6284	-0.000351363	0.00301182
12.7722	12.6289	-1.33189e-05	0.00215215
12.7727	12.6293	0.000303377	0.00285817
12.7732	12.6298	0.00017814	0.00407855
12.7736	12.6303	-0.00139389	0.00378962
12.7741	12.6308	-0.000356161	0.00289833
12.7746	12.6312	3.67618e-05	0.00221582
12.7751	12.6317	0.000337923	0.00289489
12.7755	12.6322	0.000179941	0.00418131
12.776	12.6326	-0.00142637	0.00377791
12.7765	12.6331	-0.000384839	0.00304763
12.7769	12.6336	0.000177872	0.00220959
12.7774	12.634	0.000411546	0.00292479
12.7779	12.6345	0.000152529	0.00425137
12.7784	12.635	-0.00147465	0.00368375
12.7788	12.6355	-0.000392776	0.00276894
12.7793	12.6359	9.22463e-05	0.00217518
12.7798	12.6364	0.000269704	0.00281688
12.7802	12.6369	0.000121853	0.00403094
12.7807	12.6374	-0.00144657	0.00369604
12.7812	12.6378	-0.000464062	0.00277222
12.7817	12.6383	0.000164068	0.00214839
12.7821	12.6388	0.000202146	0.00288882
12.7826	12.6392	0.000216217	0.00410814
12.7831	12.6397	-0.00139929	0.00367597
12.7836	12.6402	-0.000377901	0.00285318
12.784	12.6406	0.000190143	0.00228416
12.7845	12.6411	0.000293443	0.00299109
12.785	12.6416	0.000107317	0.00427768
12.7854	12.642	-0.00149539	0.00363876
12.7859	12.6425	-0.000293809	0.00268192
12.7864	12.643	0.000292908	0.00233849
12.7869	12.6434	3.00915e-05	0.00289833
12.7873	12.6439	0.000242292	0.00416714
12.7878	12.6444	-0.0014343	0.00366646
12.7883	12.6449	-0.000246796	0.00288243
12.7887	12.6453	0.00038087	0.00226655
12.7892	12.6458	0.000101182	0.00310851
12.7897	12.6463	0.000167403	0.00427612
12.7902	12.6468	-0.00147031	0.0035469
12.7906	12.6473	-0.00019718	0.00274624
12.7911	12.6477	0.000410012	0.00225909
12.7916	12.6482	7.30382e-05	0.00307533
12.7921	12.6487	0.000146197	0.00424171
12.7925	12.6491	-0.00136961	0.00358534
12.793	12.6496	-0.000360031	0.00275542
12.7935	12.6501	0.000453226	0.00239331
12.7939	12.6506	9.68478e-05	0.00303329
12.7944	12.651	6.3104e-05	0.00421991
12.7949	12.6515	-0.0012341	0.00367768
12.7954	12.652	-0.000466666	0.00282843
12.7958	12.6525	0.000456294	0.00230923
12.7963	12.6529	-2.94595e-05	0.00311736
12.7968	12.6534	5.15648e-05	0.00421105
12.7972	12.6539	-0.00133047	0.00372562
12.7977	12.6543	-0.000321418	0.00272895
12.7982	12.6548	0.000440956	0.0023058
12.7987	12.6553	9.83816e-05	0.00307533
12.7991	12.6558	1.93549e-05	0.00436814
12.7996	12.6563	-0.00130593	0.00355329
12.8001	12.6567	-0.000357231	0.00261718
12.8006	12.6572	0.000643418	0.00222779
12.801	12.6577	1.19533e-05	0.00304854
12.8015	12.6582	-1.05188e-05	0.00427612
12.802	12.6586	-0.00128472	0.00364311
12.8024	12.6591	-0.0003705	0.00249074
12.8029	12.6596	0.000700704	0.00239937
12.8034	12.66	-3.86623e-05	0.00310056
12.8039	12.6605	-0.000148098	0.0041382
12.8043	12.661	-0.00116508	0.00360123
12.8048	12.6614	-0.000327553	0.00250025
12.8053	12.6619	0.000682762	0.0023416
12.8057	12.6624	5.08335e-05	0.00322323
12.8062	12.6628	-0.00021892	0.00409289
12.8067	12.6633	-0.0012211	0.0035315
12.8072	12.6638	-0.000478669	0.0025935
12.8076	12.6642	0.000658489	0.00237586
12.8081	12.6647	2.34925e-05	0.00304607
12.8086	12.6652	-0.000355429	0.00414411
12.8091	12.6657	-0.00109553	0.00346423
12.8095	12.6661	-0.000522614	0.00246755
12.81	12.6666	0.000796799	0.00253278
12.8105	12.6671	-4.27287e-05	0.00323848
12.8109	12.6676	-0.000342356	0.00418909
12.8114	12.668	-0.00113187	0.00360451
12.8119	12.6685	-0.000445924	0.00256564
12.8124	12.669	0.000705038	0.00246616
12.8128	12.6694	-9.05443e-05	0.00321029
12.8133	12.6699	-0.000245994	0.00427596
12.8138	12.6704	-0.00102677	0.00348152
12.8142	12.6708	-0.000470732	0.0024755
12.8147	12.6713	0.000782264	0.00238643
12.8152	12.6718	-8.28752e-05	0.00327805
12.8157	12.6722	-0.000365167	0.00421835
12.8161	12.6727	-0.00103064	0.00360263
12.8166	12.6732	-0.000606974	0.0024274
12.8171	12.6736	0.000814937	0.00248811
12.8176	12.6741	1.96224e-05	0.00340695
12.818	12.6746	-0.00035443	0.00419269
12.8185	12.6751	-0.0010053	0.00358599
12.819	12.6756	-0.000538755	0.00235545
12.8194	12.676	0.000782531	0.00262931
12.8199	12.6765	-0.000203779	0.00323724
12.8204	12.677	-0.000411645	0.00428718
12.8209	12.6775	-0.000877459	0.00351061
12.8213	12.678	-0.000551757	0.0022513
12.8218	12.6784	0.000924105	0.00253122
12.8223	12.6789	-3.96611e-05	0.00323757
12.8227	12.6794	-0.000549955	0.00420499
12.8232	12.6798	-0.000967953	0.00357149
12.8237	12.6803	-0.000518013	0.00228572
12.8242	12.6808	0.000866355	0.00265389
12.8246	12.6813	-0.000205116	0.00337253
12.8251	12.6817	-0.000428249	0.00419098
12.8256	12.6822	-0.000787695	0.00349365
12.8261	12.6827	-0.000580631	0.00221222
12.8265	12.6831	0.000952516	0.00261358
12.827	12.6836	-4.86677e-05	0.00341317
12.8275	12.6841	-0.000556626	0.00420654
12.8279	12.6845	-0.000855986	0.00352307
12.8284	12.685	-0.000636116	0.00231562
12.8289	12.6855	0.00102027	0.00256408
12.8294	12.686	-9.84808e-05	0.00347357
12.8298	12.6865	-0.00064712	0.00425776
12.8303	12.6869	-0.000793367	0.00349708
12.8308	12.6874	-0.000639184	0.00220648
12.8312	12.6879	0.00106502	0.00279434
12.8317	12.6884	-0.000161902	0.00352855
12.8322	12.6888	-0.000654789	0.00416885
12.8327	12.6893	-0.000732282	0.00350487
12.8331	12.6898	-0.000698735	0.00223434
12.8336	12.6902	0.000921109	0.0026198
12.8341	12.6907	-0.000194843	0.00356199
12.8346	12.6912	-0.000771894	0.00407576
12.835	12.6917	-0.000783362	0.00336163
12.8355	12.6921	-0.000562493	0.00220353
12.836	12.6926	0.00106402	0.00264176
12.8364	12.693	-4.47975e-05	0.00353552
12.8369	12.6935	-0.000760087	0.00404275
12.8374	12.694	-0.000674461	0.00335106
12.8379	12.6944	-0.00063485	0.00218747
12.8383	12.6949	0.000997264	0.00279729
12.8388	12.6954	-7.45116e-06	0.00352683
12.8393	12.6959	-0.000821974	0.00417975
12.8397	12.6964	-0.000591101	0.00329125
12.8402	12.6968	-0.000670395	0.00215461
12.8407	12.6973	0.000924373	0.00274886
12.8412	12.6978	-0.000162633	0.0035374
12.8416	12.6982	-0.000886929	0.00412059
12.8421	12.6987	-0.000557892	0.00339122
12.8426	12.6992	-0.000611843	0.00211339
12.8431	12.6996	0.000981391	0.0027618
12.8435	12.7001	-0.000175439	0.00355313
12.844	12.7006	-0.000919139	0.00407388
12.8445	12.701	-0.000525682	0.00335557
12.8449	12.7015	-0.000616712	0.00211274
12.8454	12.702	0.000891431	0.00283106
12.8459	12.7025	-8.80117e-05	0.00363221
12.8464	12.7029	-0.000960552	0.00411264
12.8468	12.7034	-0.000568165	0.00327928
12.8473	12.7039	-0.000565828	0.00212987
12.8478	12.7043	0.00095405	0.00277377
12.8482	12.7048	-2.9727e-05	0.00369481
12.8487	12.7053	-0.00100043	0.00404914
12.8492	12.7058	-0.000500873	0.00330001
12.8497	12.7063	-0.000435187	0.00211397
12.8501	12.7068	0.000767924	0.0028317
12.8506	12.7072	-5.40004e-05	0.00369244
12.8511	12.7077	-0.00106485	0.00400554
12.8516	12.7082	-0.000387639	0.00320455
12.852	12.7087	-0.000558159	0.00219042
12.8525	12.7091	0.000781729	0.00281318
12.853	12.7096	1.86236e-05	0.0037194
12.8534	12.7101	-0.00117275	0.00398235
12.8539	12.7105	-0.000419314	0.00317948
12.8544	12.711	-0.000510611	0.00210356
12.8549	12.7115	0.000732914	0.00285613
12.8553	12.712	1.42897e-05	0.00379864
12.8558	12.7124	-0.00108479	0.00402267
12.8563	12.7129	-0.000572962	0.00320315
12.8567	12.7133	-0.000451792	0.00213626
12.8572	12.7138	0.000722445	0.00285629
12.8577	12.7143	4.64996e-05	0.0038782
12.8582	12.7148	-0.00119216	0.00403808
12.8586	12.7152	-0.000388174	0.00318431
12.8591	12.7157	-0.000339289	0.00205792
12.8596	12.7162	0.00071911	0.00273034
12.8601	12.7167	2.44913e-05	0.00381904
12.8605	12.7172	-0.00119116	0.00409412
12.861	12.7176	-0.000342624	0.00313776
12.8615	12.7181	-0.000266468	0.00207554
12.8619	12.7186	0.000692768	0.00277984
12.8624	12.719	3.85631e-05	0.00383912
12.8629	12.7195	-0.00122924	0.00385764
12.8634	12.72	-0.000350293	0.0031222
12.8638	12.7204	-0.000303744	0.0020335
12.8643	12.7209	0.000525583	0.00270232
12.8648	12.7214	-1.81878e-05	0.00395073
12.8652	12.7219	-0.0012369	0.0038796
12.8657	12.7223	-0.000441055	0.00311425
12.8662	12.7228	-0.000230388	0.00209766
12.8667	12.7232	0.000551925	0.00281704
12.8671	12.7237	3.54955e-05	0.00387149
12.8676	12.7242	-0.00144911	0.00387197
12.8681	12.7246	-0.000407311	0.00299206
12.8686	12.7251	-7.95401e-05	0.00206898
12.869	12.7256	0.000494639	0.0028222
12.8695	12.7261	3.77606e-05	0.00396694
12.87	12.7266	-0.00136835	0.00376438
12.8704	12.727	-0.000374299	0.00295126
12.8709	12.7275	-0.000126624	0.0020852
12.8714	12.728	0.000573594	0.00283777
12.8719	12.7285	8.66461e-05	0.00403185
12.8723	12.7289	-0.00136781	0.00383724
12.8728	12.7294	-0.000404244	0.00296372
12.8733	12.7298	3.74931e-05	0.0021937
12.8737	12.7303	0.000394941	0.00286096
12.8742	12.7308	5.30987e-05	0.00416107
12.8747	12.7313	-0.00138495	0.00375939
12.8752	12.7318	-0.000363366	0.00302239
12.8756	12.7322	-4.19974e-05	0.0022432
12.8761	12.7327	0.00051638	0.00291078
12.8766	12.7332	0.000102448	0.0041192
12.8771	12.7336	-0.00150946	0.00381249
12.8775	12.7341	-0.000369768	0.00303099
12.878	12.7346	2.62926e-05	0.00222967
12.8785	12.7351	0.000345592	0.00284695
12.8789	12.7356	0.000101182	0.00416467
12.8794	12.736	-0.00163983	0.00365605
12.8799	12.7365	-0.000314016	0.0029016
12.8804	12.737	7.20393e-05	0.00215027
12.8808	12.7375	0.000377071	0.00295904
12.8813	12.7379	0.000102983	0.00411141
12.8818	12.7384	-0.00147438	0.00374431
12.8822	12.7389	-0.000329354	0.00293971
12.8827	12.7393	0.000218019	0.00225769
12.8832	12.7398	0.000255365	0.0029402
12.8837	12.7403	0.000157398	0.00415017
12.8841	12.7408	-0.00151433	0.00366818
12.8846	12.7412	-0.000353628	0.00279852
12.8851	12.7417	0.000206551	0.00216009
12.8856	12.7422	0.000228755	0.00295593
12.886	12.7426	0.00011372	0.004155
12.8865	12.7431	-0.00158255	0.00363516
12.887	12.7436	-0.000276938	0.00280926
12.8874	12.744	0.000182741	0.00220975
12.8879	12.7445	0.000271238	0.00301805
12.8884	12.745	0.000175874	0.00423875
12.8889	12.7455	-0.00155521	0.00367597
12.8893	12.746	-0.000304011	0.00294798
12.8898	12.7464	0.000270436	0.00222017
12.8903	12.7469	0.000183009	0.00296183
12.8907	12.7474	0.000124189	0.00420155
12.8912	12.7479	-0.00145091	0.0036831
12.8917	12.7483	-0.00040271	0.00278451
12.8922	12.7488	0.00024536	0.00225565
12.8926	12.7493	0.000184542	0.00300403
12.8931	12.7497	0.000166868	0.00425014
12.8936	12.7502	-0.00150486	0.00366179
12.8941	12.7507	-0.00028614	0.00283809
12.8945	12.7511	0.000421016	0.00234112
12.895	12.7516	0.000161	0.00312531
12.8955	12.7521	0.000190945	0.00417385
12.8959	12.7525	-0.00146038	0.00358518
12.8964	12.753	-0.000536151	0.00257949
12.8969	12.7535	0.00037807	0.00220894
12.8974	12.7539	8.09747e-05	0.00307533
12.8978	12.7544	0.000133124	0.00413927
12.8983	12.7549	-0.00144684	0.00344931
12.8988	12.7553	-0.000362831	0.00257793
