# 1304     AichiSR QXAFS
# Start     : 8.9544
# End       : 9.0544
# Dir       : Forward
# Points    : 300
# ScanTime  : 1.01549
# Date      : 13.04.23 23:10
# Ring Cur. : 0.9[mA]
12.7557	12.7561	0.000166137	0.00293988
12.7562	12.7557	0.000203947	0.00426571
12.7566	12.7552	-0.00148925	0.00369792
12.7571	12.7547	-0.000358497	0.0028127
12.7576	12.7542	0.000167403	0.00219993
12.7581	12.7538	0.000167135	0.0029402
12.7585	12.7533	0.000127524	0.00411002
12.759	12.7528	-0.00148645	0.00360419
12.7595	12.7524	-0.000419047	0.00295781
12.7599	12.7519	0.000201147	0.00223622
12.7604	12.7515	0.00025096	0.00295298
12.7609	12.751	0.000214951	0.00419172
12.7614	12.7505	-0.00147618	0.00374087
12.7618	12.75	-0.000453593	0.00271568
12.7623	12.7496	0.000239759	0.00230268
12.7628	12.7491	0.000146928	0.00294627
12.7632	12.7486	0.000167938	0.00418738
12.7637	12.7482	-0.00155754	0.00363892
12.7642	12.7477	-0.000427786	0.00282236
12.7647	12.7472	0.000247161	0.00222377
12.7651	12.7468	2.90927e-05	0.00297617
12.7656	12.7463	8.91787e-05	0.00420246
12.7661	12.7458	-0.00135635	0.00356838
12.7666	12.7453	-0.000384304	0.0027101
12.767	12.7448	0.000247428	0.00235669
12.7675	12.7444	0.000201949	0.00307549
12.768	12.7439	0.000232358	0.00422785
12.7684	12.7434	-0.00147698	0.0037566
12.7689	12.743	-0.000470197	0.00270592
12.7694	12.7425	0.000271969	0.00221721
12.7699	12.742	0.000152065	0.00310646
12.7703	12.7416	5.20998e-05	0.00417009
12.7708	12.7411	-0.00128039	0.00365122
12.7713	12.7406	-0.000362099	0.00277222
12.7717	12.7401	0.000435819	0.00235266
12.7722	12.7397	7.30382e-05	0.00307549
12.7727	12.7392	8.81087e-05	0.00409928
12.7732	12.7387	-0.0013274	0.00366212
12.7736	12.7383	-0.000399642	0.00270994
12.7741	12.7378	0.000378801	0.00228588
12.7746	12.7373	0.000127524	0.00301198
12.7751	12.7368	-2.99233e-05	0.00419548
12.7755	12.7364	-0.00129753	0.00359034
12.776	12.7359	-0.000349026	0.00276164
12.7765	12.7354	0.000449891	0.0023153
12.7769	12.7349	9.43152e-05	0.003158
12.7774	12.7344	-2.79257e-05	0.00420762
12.7779	12.734	-0.001308	0.00362598
12.7784	12.7335	-0.000359763	0.00276116
12.7788	12.733	0.000571597	0.00235841
12.7793	12.7325	0.000107049	0.00314571
12.7798	12.7321	-2.45905e-05	0.00429915
12.7802	12.7316	-0.00140389	0.00358518
12.7807	12.7311	-0.000469662	0.00254711
12.7812	12.7307	0.000562127	0.00238315
12.7817	12.7302	-6.78047e-05	0.00297429
12.7821	12.7297	-7.26736e-05	0.00426104
12.7826	12.7292	-0.00118962	0.00358476
12.7831	12.7288	-0.000460994	0.00258776
12.7836	12.7283	0.000580265	0.00241757
12.784	12.7278	-7.80926e-07	0.0031857
12.7845	12.7274	-0.000101281	0.0042322
12.785	12.7269	-0.00133487	0.00356591
12.7854	12.7264	-0.000416514	0.00250631
12.7859	12.726	0.000638549	0.0024515
12.7864	12.7255	-3.25271e-05	0.0031893
12.7869	12.725	-9.7482e-05	0.00428047
12.7873	12.7245	-0.00120496	0.00347013
12.7878	12.724	-0.000511878	0.00265062
12.7883	12.7236	0.000629079	0.00237258
12.7887	12.7231	-4.57963e-05	0.00326371
12.7892	12.7226	-0.000109485	0.00423285
12.7897	12.7222	-0.00115815	0.00360902
12.7902	12.7217	-0.000419582	0.00255753
12.7906	12.7213	0.000637016	0.00243625
12.7911	12.7208	-5.7603e-05	0.00319349
12.7916	12.7203	-0.000175171	0.00424842
12.7921	12.7198	-0.00108866	0.00362115
12.7925	12.7194	-0.000473532	0.00251737
12.793	12.7189	0.0007902	0.00254368
12.7935	12.7184	1.4486e-05	0.00324535
12.7939	12.718	-0.000307346	0.00411232
12.7944	12.7175	-0.00114027	0.00343218
12.7949	12.717	-0.000424986	0.0025345
12.7954	12.7165	0.000727778	0.00245853
12.7958	12.7161	-0.000144763	0.00330263
12.7963	12.7156	-0.000227856	0.00417025
12.7968	12.7151	-0.000980224	0.00353928
12.7972	12.7146	-0.000592634	0.00232636
12.7977	12.7142	0.000664892	0.00243657
12.7982	12.7137	-5.45354e-05	0.00328084
12.7987	12.7132	-0.000300943	0.00424235
12.7991	12.7127	-0.00106178	0.00347684
12.7996	12.7123	-0.000562761	0.00231686
12.8001	12.7118	0.000743918	0.00240495
12.8006	12.7114	-0.000103885	0.0032606
12.801	12.7109	-0.000368698	0.00420606
12.8015	12.7104	-0.000984825	0.00355501
12.802	12.7099	-0.000489602	0.002426
12.8024	12.7095	0.00086689	0.00244125
12.8029	12.709	-6.9606e-05	0.00329469
12.8034	12.7085	-0.000325021	0.00417557
12.8039	12.7081	-0.000874391	0.00340228
12.8043	12.7076	-0.000432387	0.00237553
12.8048	12.7071	0.000877627	0.00257637
12.8053	12.7066	-0.000166967	0.00335868
12.8057	12.7061	-0.00044052	0.00421696
12.8062	12.7057	-0.000959018	0.0033931
12.8067	12.7052	-0.000559693	0.00244731
12.8072	12.7047	0.000842813	0.00261062
12.8076	12.7042	-0.000126892	0.00350471
12.8081	12.7037	-0.000509077	0.00419548
12.8086	12.7033	-0.000928074	0.00347824
12.8091	12.7028	-0.000623114	0.00245993
12.8095	12.7023	0.000890361	0.0025549
12.81	12.7019	-0.000193577	0.0034049
12.8105	12.7014	-0.000485268	0.00415796
12.8109	12.7009	-0.000942146	0.00352683
12.8114	12.7004	-0.00071821	0.00233071
12.8119	12.7	0.000924908	0.00264922
12.8124	12.6995	-0.000131957	0.00342842
12.8128	12.6991	-0.000493472	0.00427628
12.8133	12.6986	-0.000868256	0.00350364
12.8138	12.6981	-0.000658588	0.00230751
12.8142	12.6977	0.000935109	0.00261873
12.8147	12.6972	-0.000159833	0.00342423
12.8152	12.6967	-0.000639184	0.00411592
12.8157	12.6962	-0.000792564	0.00344259
12.8161	12.6957	-0.000577831	0.00219869
12.8166	12.6953	0.000939443	0.00259334
12.8171	12.6948	-7.77388e-05	0.00343186
12.8176	12.6943	-0.000576565	0.00417852
12.818	12.6938	-0.000752953	0.00341145
12.8185	12.6934	-0.0005799	0.00227949
12.819	12.6929	0.00099013	0.00258292
12.8194	12.6924	-0.000169036	0.00345553
12.8199	12.692	-0.000653987	0.00420032
12.8204	12.6915	-0.0007987	0.00349102
12.8209	12.691	-0.000581701	0.00226499
12.8213	12.6906	0.00107829	0.00261685
12.8218	12.6901	-0.00010335	0.00358427
12.8223	12.6896	-0.000661192	0.00402997
12.8227	12.6892	-0.000859856	0.00358567
12.8232	12.6887	-0.000645586	0.00220272
12.8237	12.6882	0.00102867	0.00271805
12.8242	12.6878	-0.000144763	0.00359189
12.8246	12.6873	-0.000642519	0.00419516
12.8251	12.6868	-0.000674996	0.00343465
12.8256	12.6863	-0.000727146	0.00222205
12.8261	12.6859	0.0010044	0.00264815
12.8265	12.6854	-9.05443e-05	0.00348651
12.827	12.6849	-0.000732015	0.00412338
12.8275	12.6844	-0.000729946	0.0034289
12.8279	12.6839	-0.00071434	0.00206448
12.8284	12.6835	0.00104355	0.00256375
12.8289	12.683	-0.000178506	0.00353692
12.8294	12.6825	-0.000877459	0.00417009
12.8298	12.6821	-0.000678064	0.00342235
12.8303	12.6816	-0.000514678	0.00216084
12.8308	12.6811	0.000831345	0.00257965
12.8312	12.6806	-0.000156766	0.00350315
12.8317	12.6802	-0.000906869	0.00409568
12.8322	12.6797	-0.000654789	0.00332443
12.8327	12.6792	-0.000644855	0.00204456
12.8331	12.6788	0.000885029	0.00271338
12.8336	12.6783	-0.000102083	0.00367081
12.8341	12.6778	-0.000888195	0.00411764
12.8346	12.6773	-0.000644784	0.00334451
12.835	12.6769	-0.000680864	0.00213502
12.8355	12.6764	0.000897032	0.00269937
12.836	12.6759	-0.000100015	0.00365991
12.8364	12.6754	-0.000842449	0.0039853
12.8369	12.6749	-0.000587302	0.00343653
12.8374	12.6745	-0.000622312	0.00219386
12.8379	12.674	0.000882496	0.00273689
12.8383	12.6735	-0.000103082	0.00359517
12.8388	12.673	-0.000924543	0.00413707
12.8393	12.6726	-0.00054102	0.00337269
12.8397	12.6721	-0.000559693	0.00215338
12.8402	12.6717	0.000927244	0.00273329
12.8407	12.6712	2.29575e-05	0.00367924
12.8412	12.6707	-0.00102577	0.00411313
12.8416	12.6702	-0.000541822	0.0033699
12.8421	12.6698	-0.00063485	0.00219649
12.8426	12.6693	0.000881426	0.00282638
12.8431	12.6689	-7.21386e-05	0.0036604
12.8435	12.6684	-0.000951082	0.00409412
12.844	12.6679	-0.000539486	0.0033509
12.8445	12.6674	-0.000574229	0.00214699
12.8449	12.667	0.000922108	0.00282376
12.8454	12.6665	-0.000144763	0.00376766
12.8459	12.666	-0.00106098	0.00399464
12.8464	12.6655	-0.000539219	0.00328256
12.8468	12.6651	-0.000544088	0.00215199
12.8473	12.6646	0.000729847	0.00278
12.8478	12.6641	-6.34707e-05	0.0036917
12.8482	12.6636	-0.00103598	0.00395449
12.8487	12.6632	-0.000532816	0.0032533
12.8492	12.6627	-0.000527216	0.00211462
12.8497	12.6622	0.000852016	0.00274919
12.8501	12.6618	-4.21937e-05	0.00371038
12.8506	12.6613	-0.00107099	0.00399325
12.8511	12.6608	-0.000393774	0.00325953
12.8516	12.6604	-0.000541287	0.00213626
12.852	12.6599	0.000749786	0.0028113
12.8525	12.6594	-7.34049e-05	0.0036903
12.853	12.659	-0.00112954	0.00390778
12.8534	12.6585	-0.000482468	0.00316407
12.8539	12.658	-0.000437256	0.00213003
12.8544	12.6575	0.000714508	0.00285473
12.8549	12.6571	2.01919e-06	0.00379413
12.8553	12.6566	-0.00120703	0.00402218
12.8558	12.6561	-0.000310681	0.00320299
12.8563	12.6556	-0.000395308	0.00208225
12.8567	12.6552	0.000662092	0.00276927
12.8572	12.6547	-8.74767e-05	0.00382822
12.8577	12.6542	-0.00122517	0.00397908
12.8582	12.6537	-0.000466131	0.00316858
12.8586	12.6533	-0.000334687	0.00213626
12.8591	12.6528	0.000684831	0.00287604
12.8596	12.6523	8.17772e-05	0.00386902
12.8601	12.6519	-0.00124358	0.00395884
12.8605	12.6514	-0.000410111	0.00313514
12.861	12.6509	-0.000310146	0.00211602
12.8615	12.6504	0.000597672	0.00278467
12.8619	12.6499	-0.000100015	0.00378495
12.8624	12.6495	-0.00129726	0.00385592
12.8629	12.649	-0.000502942	0.00308778
12.8634	12.6485	-0.000383502	0.00210651
12.8638	12.6481	0.000488771	0.00277222
12.8643	12.6476	0.000119587	0.00386746
12.8648	12.6471	-0.00130726	0.00385673
12.8652	12.6466	-0.000425717	0.00318651
12.8657	12.6462	-0.000241125	0.00215027
12.8662	12.6457	0.000452156	0.00278607
12.8667	12.6452	2.16912e-05	0.00387181
12.8671	12.6447	-0.00129086	0.00389549
12.8676	12.6442	-0.000518013	0.00304451
12.8681	12.6438	-0.000385035	0.002102
12.8686	12.6433	0.000570866	0.002839
12.869	12.6428	-3.38473e-06	0.00392663
12.8695	12.6424	-0.00140309	0.00384272
12.87	12.6419	-0.000384839	0.00303485
12.8704	12.6415	-0.000216852	0.00203957
12.8709	12.641	0.000675093	0.00282032
12.8714	12.6405	-1.48527e-05	0.00408044
12.8719	12.64	-0.00130646	0.00393081
12.8723	12.6396	-0.000415248	0.00315693
12.8728	12.6391	-0.000203047	0.00220959
12.8733	12.6386	0.000616809	0.00289521
12.8737	12.6382	0.000168669	0.0041069
12.8742	12.6377	-0.00140436	0.00390746
12.8747	12.6372	-0.000403709	0.00313497
12.8752	12.6368	-9.20781e-05	0.00211118
12.8756	12.6363	0.000492303	0.00299437
12.8761	12.6358	0.000107317	0.00408446
12.8766	12.6353	-0.00150559	0.0039095
12.8771	12.6348	-0.000304279	0.00311285
12.8775	12.6344	-4.17299e-05	0.00218796
12.878	12.6339	0.000500774	0.00291062
12.8785	12.6334	-7.24061e-05	0.00406003
12.8789	12.633	-0.00140516	0.00385936
12.8794	12.6325	-0.00034109	0.00295593
12.8799	12.632	-1.49239e-05	0.00227745
12.8804	12.6316	0.000491839	0.00299174
12.8808	12.6311	0.000155132	0.0040348
12.8813	12.6306	-0.00156855	0.00375037
12.8818	12.6301	-0.000372301	0.00300747
12.8822	12.6297	-4.96168e-08	0.00216165
12.8827	12.6292	0.00039314	0.00291685
12.8832	12.6287	0.000161	0.00411248
12.8837	12.6283	-0.00149945	0.00371129
12.8841	12.6278	-0.000351827	0.00287792
12.8846	12.6273	-5.68005e-05	0.00217673
12.8851	12.6268	0.000435819	0.00283015
12.8856	12.6264	9.68478e-05	0.00406749
12.886	12.6259	-0.00139876	0.00372235
12.8865	12.6254	-0.000311948	0.00289521
12.887	12.6249	3.39617e-05	0.00225737
12.8874	12.6244	0.000271434	0.00300403
12.8879	12.624	0.00018374	0.00408355
12.8884	12.6235	-0.00149845	0.00370243
12.8889	12.623	-0.000346958	0.00291406
12.8893	12.6226	5.20998e-05	0.00212536
12.8898	12.6221	0.000381137	0.00283433
12.8903	12.6216	0.000189679	0.0041083
12.8907	12.6211	-0.00155674	0.00367065
12.8912	12.6207	-0.000302745	0.00299297
12.8917	12.6202	-2.38592e-05	0.00217035
12.8922	12.6197	0.000305981	0.00284555
12.8926	12.6192	0.000152529	0.0041251
12.8931	12.6188	-0.00148718	0.00373497
12.8936	12.6183	-0.000399642	0.00289038
12.8941	12.6178	6.21052e-05	0.00221206
12.8945	12.6174	0.000286772	0.00280073
12.895	12.6169	0.000143397	0.00414255
12.8955	12.6164	-0.00157948	0.00375832
12.8959	12.6159	-0.000426983	0.00289489
12.8964	12.6155	0.000185541	0.00224212
12.8969	12.615	0.000271702	0.0030786
12.8974	12.6145	0.0001638	0.00423129
12.8978	12.614	-0.00144397	0.00363581
12.8983	12.6136	-0.000309682	0.0029307
12.8988	12.6131	0.000273503	0.00218189
