# 1304     AichiSR QXAFS
# Start     : 8.9544
# End       : 9.0544
# Dir       : Forward
# Points    : 300
# ScanTime  : 1.01549
# Date      : 13.04.24 00:35
# Ring Cur. : 0.9[mA]
12.7557	12.7562	4.81931e-06	0.00307844
12.7562	12.7558	1.68223e-05	0.00424031
12.7566	12.7553	-0.00117682	0.00352011
12.7571	12.7548	-0.000490404	0.00255302
12.7576	12.7543	0.000581799	0.00233242
12.7581	12.7539	2.65601e-05	0.00316611
12.7585	12.7534	-0.000214319	0.00414862
12.759	12.7529	-0.00118249	0.00360172
12.7595	12.7525	-0.000460727	0.00250943
12.7599	12.752	0.000584402	0.00241322
12.7604	12.7515	-6.40057e-05	0.00317218
12.7609	12.7511	-0.000202512	0.00417524
12.7614	12.7506	-0.00118756	0.00351217
12.7618	12.7501	-0.000577296	0.00249246
12.7623	12.7497	0.000659024	0.00237151
12.7628	12.7492	2.93602e-05	0.00315956
12.7632	12.7487	-0.000264935	0.00420654
12.7637	12.7483	-0.00113061	0.00352355
12.7642	12.7478	-0.000485268	0.00243625
12.7647	12.7473	0.000774327	0.00252156
12.7651	12.7469	-5.7603e-05	0.00325641
12.7656	12.7464	-0.000290474	0.00423441
12.7661	12.7459	-0.00105872	0.00359329
12.7666	12.7454	-0.000528749	0.00237446
12.767	12.7449	0.000781729	0.00252607
12.7675	12.7445	-0.000121755	0.00327633
12.768	12.744	-0.000406045	0.00426538
12.7684	12.7435	-0.000897131	0.00354175
12.7689	12.7431	-0.000493739	0.00223294
12.7694	12.7426	0.000930775	0.0026008
12.7699	12.7421	-0.000150898	0.00318619
12.7703	12.7417	-0.000359763	0.0042213
12.7708	12.7412	-0.000974089	0.00346857
12.7713	12.7407	-0.000687267	0.00227482
12.7717	12.7402	0.000781461	0.00254228
12.7722	12.7398	-0.000163703	0.00341768
12.7727	12.7393	-0.000484002	0.00421277
12.7732	12.7388	-0.000968488	0.00351732
12.7736	12.7384	-0.000591368	0.00239298
12.7741	12.7379	0.000906502	0.00255458
12.7746	12.7374	-0.000213784	0.00349365
12.7751	12.7369	-0.000498073	0.0043552
12.7755	12.7365	-0.000891531	0.00354379
12.776	12.736	-0.000536954	0.00221877
12.7765	12.7355	0.000947112	0.00269797
12.7769	12.735	-8.56754e-05	0.00342063
12.7774	12.7345	-0.000688265	0.00420622
12.7779	12.7341	-0.000832978	0.00346906
12.7784	12.7336	-0.000594168	0.00232448
12.7788	12.7331	0.000896764	0.00269641
12.7793	12.7326	-8.16089e-05	0.00354068
12.7798	12.7322	-0.00062158	0.00419999
12.7802	12.7317	-0.00078823	0.00353944
12.7807	12.7312	-0.000733816	0.00218903
12.7812	12.7308	0.00104968	0.0026634
12.7817	12.7303	-8.46765e-05	0.00355904
12.7821	12.7298	-0.000648654	0.00418442
12.7826	12.7293	-0.000739149	0.00341006
12.7831	12.7289	-0.000705405	0.00214732
12.7836	12.7284	0.000820876	0.00276336
12.784	12.7279	-0.000132492	0.00349987
12.7845	12.7275	-0.000808705	0.00409928
12.785	12.727	-0.00061211	0.00341768
12.7854	12.7265	-0.000690602	0.00228539
12.7859	12.726	0.00092184	0.00275214
12.7864	12.7256	-0.00010228	0.00357493
12.7869	12.7251	-0.000820173	0.00420901
12.7873	12.7246	-0.000630783	0.00345677
12.7878	12.7241	-0.000625647	0.00207914
12.7883	12.7237	0.000971992	0.00276009
12.7887	12.7232	-0.000114086	0.00371317
12.7892	12.7227	-0.000811238	0.0041156
12.7897	12.7223	-0.000635117	0.00338327
12.7902	12.7218	-0.000532085	0.00213314
12.7906	12.7214	0.00078073	0.00289816
12.7911	12.7209	-0.000167502	0.00375349
12.7916	12.7204	-0.000951884	0.00406438
12.7921	12.7199	-0.000564562	0.00336926
12.7925	12.7195	-0.00061491	0.00217362
12.793	12.719	0.000867354	0.00272583
12.7935	12.7185	8.12422e-05	0.00364064
12.7939	12.7181	-0.000977959	0.00413755
12.7944	12.7176	-0.000556626	0.00320503
12.7949	12.7171	-0.000597236	0.00217051
12.7954	12.7167	0.000791466	0.00280803
12.7958	12.7162	-2.94595e-05	0.00365261
12.7963	12.7157	-0.00106999	0.00393409
12.7968	12.7152	-0.000552292	0.00325576
12.7972	12.7147	-0.000444925	0.00210684
12.7977	12.7143	0.000820341	0.00276459
12.7982	12.7138	-1.15888e-05	0.00386091
12.7987	12.7133	-0.00117889	0.0040479
12.7991	12.7128	-0.000480934	0.00315521
12.7996	12.7124	-0.000441055	0.00214715
12.8001	12.7119	0.000785866	0.00278204
12.8006	12.7115	-9.48782e-05	0.0037194
12.801	12.711	-0.00117582	0.00394917
12.8015	12.7105	-0.000494274	0.00322618
12.802	12.71	-0.000485072	0.00204612
12.8024	12.7096	0.000580265	0.00286268
12.8029	12.7091	-1.7189e-05	0.00382215
12.8034	12.7086	-0.00118962	0.00395712
12.8039	12.7082	-0.000375369	0.00314523
12.8043	12.7077	-0.000311145	0.00207242
12.8048	12.7072	0.000620411	0.00273797
12.8053	12.7067	-6.4737e-05	0.00395089
12.8057	12.7062	-0.001308	0.00392458
12.8062	12.7058	-0.000355429	0.00325281
12.8067	12.7053	-0.000310414	0.00209701
12.8072	12.7048	0.000576466	0.00280384
12.8076	12.7043	6.49053e-05	0.00392786
12.8081	12.7038	-0.0013402	0.00391073
12.8086	12.7034	-0.000413179	0.00301993
12.8091	12.7029	-0.00031835	0.00205841
12.8095	12.7024	0.00052585	0.00281737
12.81	12.702	4.38958e-05	0.00389033
12.8105	12.7015	-0.00130546	0.00374619
12.8109	12.701	-0.000304546	0.00306024
12.8114	12.7005	-0.000112553	0.00208053
12.8119	12.7001	0.000441491	0.00289258
12.8124	12.6996	-6.9071e-05	0.00400039
12.8128	12.6991	-0.00147545	0.00388067
12.8133	12.6987	-0.000476868	0.00299362
12.8138	12.6982	-9.90158e-05	0.00211011
12.8142	12.6978	0.000513776	0.00286284
12.8147	12.6973	9.40477e-05	0.00401521
12.8152	12.6968	-0.00146831	0.00380315
12.8157	12.6963	-0.000396307	0.00303812
12.8161	12.6959	-3.43284e-05	0.00216412
12.8166	12.6954	0.000404876	0.00283482
12.8171	12.6949	-2.33242e-05	0.00398342
12.8176	12.6944	-0.00152173	0.00376873
12.818	12.6939	-0.00034496	0.00286064
12.8185	12.6935	-2.79257e-05	0.00212675
12.819	12.693	0.000300844	0.00292259
12.8194	12.6925	0.000145395	0.00409863
12.8199	12.6921	-0.00155521	0.00360574
12.8204	12.6916	-0.000402175	0.00298036
12.8209	12.6912	0.000115521	0.00206045
12.8213	12.6907	0.000221086	0.00292775
12.8218	12.6902	0.000103714	0.00411592
12.8223	12.6897	-0.00155521	0.00370834
12.8227	12.6893	-0.000444658	0.0028812
12.8232	12.6888	0.000141596	0.00218092
12.8237	12.6883	0.000281904	0.00284695
12.8242	12.6879	0.000148997	0.00418582
12.8246	12.6874	-0.00138469	0.00370383
12.8251	12.6869	-0.000376368	0.00285613
12.8256	12.6864	0.000138528	0.00217158
12.8261	12.686	0.000163337	0.00294815
12.8265	12.6855	0.000165869	0.00424809
12.827	12.685	-0.00144504	0.00372562
12.8275	12.6845	-0.000293542	0.00287653
12.8279	12.684	0.000292908	0.00228137
12.8284	12.6836	0.00014873	0.0030123
12.8289	12.6831	0.000141596	0.00424294
12.8294	12.6826	-0.00139849	0.00355313
12.8298	12.6822	-0.000323754	0.00275182
12.8303	12.6817	0.000275037	0.00221131
12.8308	12.6812	-3.86623e-05	0.00300715
12.8312	12.6807	0.00018481	0.00417787
12.8317	12.6803	-0.00147265	0.00370662
12.8322	12.6798	-0.000410914	0.00282376
12.8327	12.6793	0.000272504	0.00222999
12.8331	12.6789	0.000179673	0.00293602
12.8336	12.6784	0.000131323	0.00417074
12.8341	12.6779	-0.00143403	0.0035964
12.8346	12.6775	-0.000495273	0.0026162
12.835	12.677	0.000407212	0.0023335
12.8355	12.6765	5.4365e-05	0.00304763
12.836	12.676	9.63128e-05	0.00423548
12.8364	12.6755	-0.00156954	0.00365916
12.8369	12.675	-0.000492473	0.00270232
12.8374	12.6746	0.000505376	0.00233398
12.8379	12.6741	-0.000156498	0.00312499
12.8383	12.6736	7.35192e-06	0.00427972
12.8388	12.6731	-0.00131747	0.00357198
12.8393	12.6727	-0.000457392	0.00257014
12.8397	12.6722	0.000475234	0.00225409
12.8402	12.6718	-6.98735e-05	0.00313948
12.8407	12.6713	-3.86623e-05	0.00424949
12.8412	12.6708	-0.00136294	0.00350192
12.8416	12.6703	-0.000445121	0.00253761
12.8421	12.6699	0.000537853	0.00234906
12.8426	12.6694	1.48419e-06	0.00314383
12.8431	12.669	-0.000113819	0.00426506
12.8435	12.6685	-0.00116508	0.00354347
12.844	12.668	-0.00039604	0.00253434
12.8445	12.6675	0.000740316	0.00249279
12.8449	12.6671	-4.32637e-05	0.00314415
12.8454	12.6666	-0.000173102	0.0042081
12.8459	12.6661	-0.00121597	0.00366507
12.8464	12.6656	-0.000490137	0.00243174
12.8468	12.6652	0.000702702	0.00229522
12.8473	12.6647	-5.45354e-05	0.00329829
12.8478	12.6642	-0.00024726	0.00436593
12.8482	12.6637	-0.00104084	0.00362271
12.8487	12.6633	-0.00044999	0.00250803
12.8492	12.6628	0.000817541	0.00250041
12.8497	12.6624	-4.47975e-05	0.00326371
12.8501	12.6619	-0.000257266	0.00423736
12.8506	12.6614	-0.00111113	0.00352216
12.8511	12.6609	-0.00051161	0.00241757
12.8516	12.6605	0.000793999	0.00250401
12.852	12.66	-0.000105615	0.00326854
12.8525	12.6595	-0.000289208	0.00430398
12.853	12.6591	-0.00105438	0.00351732
12.8534	12.6586	-0.000456928	0.00243813
12.8539	12.6581	0.000818807	0.00254089
12.8544	12.6577	-0.00020278	0.00339728
12.8549	12.6572	-0.00043879	0.0041972
12.8553	12.6567	-0.000883862	0.0035905
12.8558	12.6562	-0.000680596	0.00229941
12.8563	12.6557	0.000807536	0.00256392
12.8567	12.6553	-9.82133e-05	0.00334263
12.8572	12.6548	-0.000463527	0.0041033
12.8577	12.6543	-0.000999432	0.00348307
12.8582	12.6538	-0.000644053	0.00233382
12.8586	12.6534	0.000891431	0.00258743
12.8591	12.6529	-0.000125091	0.00333689
12.8596	12.6524	-0.000467397	0.0041033
12.8601	12.652	-0.000918337	0.00352683
12.8605	12.6515	-0.000643518	0.00223525
12.861	12.651	0.000934842	0.00257653
12.8615	12.6505	-0.000187977	0.00349365
12.8619	12.6501	-0.00054102	0.00423408
12.8624	12.6496	-0.000881329	0.00344104
12.8629	12.6491	-0.000690602	0.00221721
12.8634	12.6487	0.000987794	0.00257793
12.8638	12.6482	-0.000213053	0.00340072
12.8643	12.6477	-0.000639986	0.004072
12.8648	12.6472	-0.000757287	0.00340974
12.8652	12.6467	-0.000768291	0.00225474
12.8657	12.6463	0.000938444	0.00267397
12.8662	12.6458	-9.36119e-05	0.00355002
12.8667	12.6453	-0.000709739	0.00410003
12.8671	12.6448	-0.000751152	0.00346348
12.8676	12.6444	-0.000680596	0.00218124
12.8681	12.6439	0.000921305	0.00268052
12.8686	12.6434	-7.11398e-05	0.00358411
12.869	12.643	-0.00073255	0.00402857
12.8695	12.6425	-0.000702605	0.00342359
12.87	12.642	-0.000643518	0.00216584
12.8704	12.6416	0.000945382	0.00265905
12.8709	12.6411	-0.000172371	0.00355936
12.8714	12.6406	-0.000684467	0.00408355
12.8719	12.6401	-0.000656323	0.0034616
12.8723	12.6397	-0.000697468	0.00206808
12.8728	12.6392	0.000954852	0.00278967
12.8733	12.6388	-0.000127623	0.00361885
12.8737	12.6383	-0.000894866	0.00412542
12.8742	12.6378	-0.000602907	0.00339605
12.8747	12.6373	-0.00062051	0.00211478
12.8752	12.6369	0.000867622	0.0027741
12.8756	12.6364	-8.9813e-05	0.00363672
12.8761	12.6359	-0.00086979	0.00414894
12.8766	12.6354	-0.000584234	0.00326559
12.8771	12.635	-0.000614643	0.00205825
12.8775	12.6345	0.00092571	0.00272068
12.878	12.634	-8.52115e-05	0.00362614
12.8785	12.6335	-0.00091427	0.00413288
12.8789	12.6331	-0.000538487	0.00326854
12.8794	12.6326	-0.000522614	0.00210479
12.8799	12.6321	0.000779998	0.00274156
12.8804	12.6317	-9.51996e-06	0.00369572
12.8808	12.6312	-0.000828644	0.00403061
12.8813	12.6307	-0.000470465	0.00320782
12.8818	12.6302	-0.000548689	0.00220025
12.8822	12.6298	0.000818807	0.00285178
12.8827	12.6293	-4.65988e-05	0.00371505
12.8832	12.6289	-0.00103831	0.00408478
12.8837	12.6284	-0.000408845	0.0033014
12.8841	12.6279	-0.000425984	0.0021515
12.8846	12.6274	0.000729579	0.00277066
12.8851	12.627	-3.12608e-05	0.00384706
12.8856	12.6265	-0.00122924	0.00410191
12.886	12.626	-0.000484002	0.00316767
12.8865	12.6255	-0.000400177	0.00211306
12.887	12.625	0.000740851	0.00288448
12.8874	12.6246	7.25743e-05	0.00377061
12.8879	12.6241	-0.0011216	0.00397924
12.8884	12.6236	-0.000486338	0.00318103
12.8889	12.6231	-0.000312215	0.00222779
12.8893	12.6227	0.000646753	0.00285989
12.8898	12.6222	1.32197e-05	0.00388303
12.8903	12.6217	-0.00117455	0.00394778
12.8907	12.6213	-0.000349829	0.00317341
12.8912	12.6208	-0.000180771	0.00230907
12.8917	12.6203	0.000636017	0.0028113
12.8922	12.6198	6.33715e-05	0.00395245
12.8926	12.6194	-0.0013366	0.00392335
12.8931	12.6189	-0.000334491	0.00307705
12.8936	12.6184	-0.000142961	0.00217985
12.8941	12.618	0.000484901	0.00292946
12.8945	12.6175	1.52885e-05	0.00398702
12.895	12.617	-0.00141463	0.0039976
12.8955	12.6165	-0.000388905	0.00307672
12.8959	12.6161	-0.000118153	0.00210995
12.8964	12.6156	0.000497172	0.00293864
12.8969	12.6151	4.95672e-05	0.00393409
12.8974	12.6146	-0.00128905	0.00390606
12.8978	12.6142	-0.000369501	0.00301912
12.8983	12.6137	-0.000123289	0.00219214
12.8988	12.6132	0.000436354	0.00281892
