# 1304     AichiSR QXAFS
# Start     : 8.9544
# End       : 9.0544
# Dir       : Backward
# Points    : 300
# ScanTime  : 1.01549
# Date      : 13.04.23 23:14
# Ring Cur. : 1[mA]
12.7557	12.6123	-0.000423648	0.00323322
12.7562	12.6127	-0.000570697	0.00208209
12.7566	12.6132	0.000800669	0.00278762
12.7571	12.6136	-6.4202e-05	0.00383166
12.7576	12.6141	-0.000979956	0.00396055
12.7581	12.6146	-0.000485535	0.00317234
12.7585	12.6151	-0.000496807	0.00210217
12.759	12.6155	0.000721375	0.00287948
12.7595	12.616	5.81811e-06	0.00375021
12.7599	12.6165	-0.00114388	0.00403389
12.7604	12.617	-0.000549688	0.00333238
12.7609	12.6174	-0.000455394	0.00208832
12.7614	12.6179	0.000715043	0.00264209
12.7618	12.6184	-3.37934e-05	0.0037843
12.7623	12.6189	-0.00123257	0.00405536
12.7628	12.6193	-0.000431121	0.0032002
12.7632	12.6198	-0.000366166	0.00213486
12.7637	12.6203	0.00078073	0.00282827
12.7642	12.6207	-8.8743e-05	0.00389967
12.7647	12.6212	-0.00120289	0.00391385
12.7651	12.6217	-0.000447725	0.00309589
12.7656	12.6222	-0.000413446	0.0022745
12.7661	12.6226	0.000662823	0.00280819
12.7666	12.6231	2.57576e-05	0.00398112
12.767	12.6236	-0.00129266	0.00405848
12.7675	12.624	-0.000361029	0.00315161
12.768	12.6245	-0.000345424	0.00223402
12.7684	12.625	0.000670759	0.00286268
12.7689	12.6255	4.90322e-05	0.00385297
12.7694	12.626	-0.00134634	0.00400554
12.7699	12.6264	-0.000456393	0.00306287
12.7703	12.6269	-0.000201781	0.00224089
12.7708	12.6274	0.000531718	0.00282998
12.7713	12.6279	-8.25365e-06	0.00394515
12.7717	12.6283	-0.00139722	0.00398186
12.7722	12.6288	-0.000413446	0.00313884
12.7727	12.6293	-8.24114e-05	0.00213969
12.7732	12.6297	0.000558524	0.0028077
12.7736	12.6302	-2.4858e-05	0.00406503
12.7741	12.6307	-0.00143864	0.00397006
12.7746	12.6312	-0.000513411	0.00303968
12.7751	12.6316	-0.000173637	0.00214404
12.7755	12.6321	0.000667763	0.00288399
12.776	12.6326	0.000114183	0.00401767
12.7765	12.633	-0.0013162	0.00380019
12.7769	12.6335	-0.000366166	0.0030196
12.7774	12.634	-6.50045e-05	0.00229366
12.7779	12.6344	0.000540921	0.00283498
12.7784	12.6349	0.00014206	0.00409445
12.7788	12.6354	-0.00141103	0.00378183
12.7793	12.6359	-0.000338557	0.00305074
12.7798	12.6363	-0.000113819	0.00217346
12.7802	12.6368	0.000546521	0.00290751
12.7807	12.6373	0.000122388	0.00408323
12.7812	12.6378	-0.00137315	0.00387321
12.7817	12.6382	-0.000454859	0.0029729
12.7821	12.6387	-4.9399e-05	0.00224057
12.7826	12.6392	0.000464498	0.00290971
12.7831	12.6396	0.000165067	0.00419581
12.7836	12.6401	-0.00136375	0.00382838
12.784	12.6406	-0.000374299	0.00292463
12.7845	12.641	8.61111e-05	0.00206045
12.785	12.6415	0.000336122	0.00281253
12.7854	12.642	0.000132125	0.00411264
12.7859	12.6424	-0.00135627	0.00380626
12.7864	12.6429	-0.000302745	0.00301788
12.7869	12.6433	8.91787e-05	0.00229383
12.7873	12.6438	0.000394674	0.00304296
12.7878	12.6443	0.000164068	0.00415951
12.7883	12.6448	-0.00155214	0.00372391
12.7887	12.6452	-0.000344693	0.00292012
12.7892	12.6457	4.90322e-05	0.00232792
12.7897	12.6462	0.000314381	0.00296978
12.7902	12.6467	8.07072e-05	0.00402111
12.7906	12.6472	-0.00145884	0.00364016
12.7911	12.6477	-0.000445389	0.00293569
12.7916	12.6481	0.000155864	0.00221705
12.7921	12.6486	0.000346858	0.00297338
12.7925	12.6491	0.000133392	0.00415779
12.793	12.6495	-0.00149412	0.00370817
12.7935	12.65	-0.000439789	0.00288915
12.7939	12.6505	0.000198079	0.0022359
12.7944	12.651	0.000144128	0.0030305
12.7949	12.6514	0.000160733	0.00428857
12.7954	12.6519	-0.0014445	0.00372144
12.7958	12.6524	-0.000367967	0.00287825
12.7963	12.6528	0.000282974	0.00218887
12.7968	12.6533	0.000132928	0.00300994
12.7972	12.6538	8.61111e-05	0.00421851
12.7977	12.6543	-0.00152173	0.00369728
12.7982	12.6547	-0.000430318	0.00276508
12.7987	12.6552	0.000228755	0.00222983
12.7991	12.6557	3.39617e-05	0.00307828
12.7996	12.6562	0.000110652	0.00419688
12.8001	12.6566	-0.00140002	0.00365417
12.8006	12.6571	-0.000400445	0.00272288
12.801	12.6576	0.000455295	0.00226703
12.8015	12.6581	4.59646e-05	0.0030101
12.802	12.6585	9.73116e-05	0.004214
12.8024	12.659	-0.00137882	0.00370211
12.8029	12.6595	-0.000472997	0.00271912
12.8034	12.6599	0.000324119	0.00240028
12.8039	12.6604	0.000128059	0.00299174
12.8043	12.6609	4.9496e-05	0.00428965
12.8048	12.6614	-0.00145957	0.00363753
12.8053	12.6618	-0.000381771	0.00277689
12.8057	12.6623	0.000412081	0.00232308
12.8062	12.6628	1.32197e-05	0.00303968
12.8067	12.6632	7.71758e-05	0.00435101
12.8072	12.6637	-0.00139876	0.00364966
12.8076	12.6642	-0.000503477	0.00269405
12.8081	12.6646	0.000422283	0.00238101
12.8086	12.6651	5.20998e-05	0.00313932
12.8091	12.6656	9.83816e-05	0.00419548
12.8095	12.6661	-0.00131593	0.00356494
12.81	12.6665	-0.000566096	0.00256252
12.8105	12.667	0.000539119	0.00234595
12.8109	12.6675	5.69688e-05	0.00305729
12.8114	12.668	-4.65988e-05	0.00418926
12.8119	12.6684	-0.00120063	0.00367768
12.8124	12.6689	-0.000416514	0.00270559
12.8128	12.6694	0.000575396	0.0023802
12.8133	12.6698	-3.17116e-07	0.00319537
12.8138	12.6703	-2.8657e-05	0.00422941
12.8142	12.6708	-0.00127425	0.00377373
12.8147	12.6712	-0.000421383	0.00257154
12.8152	12.6717	0.000594336	0.00247657
12.8157	12.6722	-1.28551e-05	0.00324347
12.8161	12.6726	-0.000230388	0.00424359
12.8166	12.6731	-0.00124511	0.00353708
12.8171	12.6736	-0.00050321	0.00255441
12.8176	12.674	0.000660825	0.00243002
12.818	12.6745	2.65601e-05	0.00320471
12.8185	12.675	-0.000134026	0.00427784
12.819	12.6755	-0.00118042	0.00356886
12.8194	12.676	-0.000492206	0.00258711
12.8199	12.6764	0.000659024	0.00248435
12.8204	12.6769	-1.38539e-05	0.00328723
12.8209	12.6774	-0.000157033	0.00429915
12.8213	12.6779	-0.00116581	0.00362491
12.8218	12.6784	-0.000458194	0.00243641
12.8223	12.6788	0.000714508	0.00254089
12.8227	12.6793	-2.79257e-05	0.0032701
12.8232	12.6797	-0.000311948	0.00434446
12.8237	12.6802	-0.00107685	0.0035002
12.8242	12.6807	-0.000507009	0.00243142
12.8246	12.6812	0.000821608	0.00255458
12.8251	12.6817	6.81692e-07	0.00326978
12.8256	12.6821	-0.000309682	0.00432159
12.8261	12.6826	-0.000965956	0.00361385
12.8265	12.683	-0.000591903	0.00256966
12.827	12.6835	0.000826476	0.00266962
12.8275	12.684	-6.65383e-05	0.0033196
12.8279	12.6845	-0.000210181	0.0043865
12.8284	12.6849	-0.000906334	0.00363393
12.8289	12.6854	-0.000479668	0.00238536
12.8294	12.6859	0.000745185	0.00260096
12.8298	12.6864	-8.13414e-05	0.0033495
12.8303	12.6869	-0.000408114	0.00426694
12.8308	12.6873	-0.000905335	0.00354707
12.8312	12.6878	-0.00054769	0.00236791
12.8317	12.6883	0.000866623	0.00263382
12.8322	12.6888	-3.19921e-05	0.00331493
12.8327	12.6892	-0.000434188	0.0042249
12.8331	12.6897	-0.000848584	0.00352838
12.8336	12.6901	-0.000628447	0.00240028
12.8341	12.6906	0.000942778	0.00259055
12.8346	12.6911	-3.35259e-05	0.00351888
12.835	12.6916	-0.000381236	0.00428267
12.8355	12.692	-0.000955683	0.00368155
12.836	12.6925	-0.000684199	0.00233366
12.8364	12.693	0.00100493	0.00268347
12.8369	12.6934	-0.000139894	0.00349053
12.8374	12.6939	-0.000415248	0.00427505
12.8379	12.6944	-0.000829911	0.00351282
12.8383	12.6948	-0.000583699	0.0023008
12.8388	12.6953	0.000911371	0.00252016
12.8393	12.6958	-5.19316e-05	0.00347792
12.8397	12.6963	-0.000572231	0.00426055
12.8402	12.6967	-0.000875925	0.0035206
12.8407	12.6972	-0.000663992	0.00229441
12.8412	12.6977	0.000999797	0.00260268
12.8416	12.6982	-0.000229389	0.00343153
12.8421	12.6986	-0.000682398	0.00424826
12.8426	12.6991	-0.000816107	0.00341924
12.8431	12.6996	-0.000638185	0.00226703
12.8435	12.7	0.00105862	0.00271789
12.844	12.7005	-0.000187709	0.00344743
12.8445	12.701	-0.000691601	0.0042059
12.8449	12.7015	-0.000693937	0.00348463
12.8454	12.7019	-0.000653523	0.0022082
12.8459	12.7024	0.000891699	0.00262603
12.8464	12.7028	-0.000153965	0.00356043
12.8468	12.7033	-0.000784895	0.00417492
12.8473	12.7038	-0.000669325	0.00340335
12.8478	12.7043	-0.000633048	0.00221206
12.8482	12.7047	0.00102434	0.00270978
12.8487	12.7052	-0.000102815	0.00368826
12.8492	12.7057	-0.000743286	0.00412945
12.8497	12.7062	-0.000716409	0.00351282
12.8501	12.7067	-0.000567095	0.00219526
12.8506	12.7072	0.000980392	0.0028317
12.8511	12.7076	-0.000127891	0.0036168
12.8516	12.7081	-0.000768558	0.00422474
12.852	12.7086	-0.000726147	0.00346767
12.8525	12.7091	-0.000714875	0.00210684
12.853	12.7095	0.000882229	0.00281302
12.8534	12.71	-1.87228e-05	0.00352559
12.8539	12.7104	-0.000956949	0.00410797
12.8544	12.7109	-0.000630516	0.00332459
12.8549	12.7114	-0.000608044	0.00203506
12.8553	12.7119	0.000871224	0.00284523
12.8558	12.7123	-0.00016777	0.00352462
12.8563	12.7128	-0.000895865	0.00408494
12.8567	12.7133	-0.000614375	0.00331402
12.8572	12.7137	-0.000650455	0.00208504
12.8577	12.7142	0.000903167	0.00266946
12.8582	12.7147	-0.000149631	0.00365712
12.8586	12.7152	-0.000908135	0.00404725
12.8591	12.7157	-0.000635849	0.00336228
12.8596	12.7161	-0.000579365	0.00222017
12.8601	12.7166	0.000849484	0.00271773
12.8605	12.7171	3.0359e-05	0.00375316
12.861	12.7176	-0.000947015	0.00413428
12.8615	12.718	-0.00066706	0.00340974
12.8619	12.7185	-0.000536419	0.0022236
12.8624	12.719	0.000843348	0.00276025
12.8629	12.7194	-0.00018004	0.0037194
12.8634	12.7199	-0.00100377	0.00408945
12.8638	12.7203	-0.000504476	0.00337876
12.8643	12.7208	-0.000530551	0.0021529
12.8648	12.7213	0.00076359	0.00284228
12.8652	12.7218	-5.21991e-05	0.0037085
12.8657	12.7222	-0.000997363	0.0040647
12.8662	12.7227	-0.000418583	0.00331927
12.8667	12.7232	-0.000465061	0.00209111
12.8671	12.7236	0.000778661	0.00289382
12.8676	12.7241	-7.11398e-05	0.00376906
12.8681	12.7246	-0.00109706	0.00413567
12.8686	12.725	-0.000418583	0.00321454
12.869	12.7255	-0.000401978	0.00221099
12.8695	12.726	0.000769191	0.00287997
12.87	12.7265	-1.31226e-05	0.00381109
12.8704	12.727	-0.00113774	0.00400071
12.8709	12.7274	-0.000292276	0.00319939
12.8714	12.7279	-0.000413714	0.00228539
12.8719	12.7284	0.000755654	0.00282483
12.8723	12.7288	-4.01961e-05	0.00383289
12.8728	12.7293	-0.00116355	0.00393736
12.8733	12.7298	-0.000472534	0.00318243
12.8737	12.7302	-0.000385838	0.00205095
12.8742	12.7307	0.000642687	0.00287079
12.8747	12.7312	-2.15229e-05	0.00388271
12.8752	12.7317	-0.00116202	0.00398031
12.8756	12.7321	-0.000399375	0.00320127
12.8761	12.7326	-0.000340555	0.0022359
12.8766	12.7331	0.000628883	0.00287702
12.8771	12.7336	1.21669e-06	0.00382248
12.8775	12.734	-0.00130033	0.00400587
12.878	12.7345	-0.000422917	0.00317062
12.8785	12.735	-0.000298143	0.00213314
12.8789	12.7355	0.000506909	0.00293553
12.8794	12.736	0.000110385	0.00384518
12.8799	12.7364	-0.00125098	0.00396072
12.8804	12.7369	-0.000357498	0.00306754
12.8808	12.7374	-0.000136291	0.00211118
12.8813	12.7379	0.000634483	0.00290004
12.8818	12.7383	9.22463e-05	0.00403791
12.8822	12.7388	-0.00139949	0.00387133
12.8827	12.7393	-0.000326019	0.00316439
12.8832	12.7397	-0.000107684	0.00221705
12.8837	12.7402	0.000413882	0.00288898
12.8841	12.7407	5.82351e-05	0.00399636
12.8846	12.7412	-0.00138008	0.00394015
12.8851	12.7416	-0.000388905	0.00312826
12.8856	12.7421	-0.000128158	0.00219574
12.886	12.7426	0.000509442	0.00286424
12.8865	12.743	2.90927e-05	0.00408183
12.887	12.7435	-0.00134887	0.0039372
12.8874	12.744	-0.000374566	0.00296887
12.8879	12.7444	-6.70022e-05	0.00221115
12.8884	12.7449	0.000514578	0.00289398
12.8889	12.7454	7.61058e-05	0.0039744
12.8893	12.7459	-0.0015202	0.00388239
12.8898	12.7464	-0.000345156	0.00303845
12.8903	12.7468	-5.96006e-05	0.00230891
12.8907	12.7473	0.000372202	0.00297118
12.8912	12.7478	0.000125188	0.0040493
12.8917	12.7483	-0.00144224	0.00378028
12.8922	12.7487	-0.000383573	0.002981
12.8926	12.7492	8.08323e-06	0.00206963
12.8931	12.7496	0.000305178	0.00290595
12.8936	12.7501	0.000102181	0.00410518
12.8941	12.7506	-0.00158228	0.00374774
12.8945	12.7511	-0.000394506	0.00297118
12.895	12.7515	5.08335e-05	0.00225909
12.8955	12.752	0.000344326	0.00284834
12.8959	12.7525	0.000184275	0.00417664
12.8964	12.7529	-0.0014315	0.00371956
12.8969	12.7534	-0.000358764	0.00299657
12.8974	12.7538	0.000157933	0.00220476
12.8978	12.7543	0.00045196	0.00289177
12.8983	12.7548	0.000178407	0.00411248
12.8988	12.7553	-0.00140489	0.00365089
