# 1304     AichiSR QXAFS
# Start     : 8.9544
# End       : 9.0544
# Dir       : Forward
# Points    : 300
# ScanTime  : 1.01549
# Date      : 13.04.23 23:00
# Ring Cur. : 0.9[mA]
12.7557	12.7561	0.000411546	0.00283744
12.7562	12.7556	0.000252297	0.00408961
12.7566	12.7551	-0.00151253	0.00383788
12.7571	12.7546	-0.000329087	0.00291545
12.7576	12.7542	0.000103518	0.0020902
12.7581	12.7537	0.000393675	0.00292586
12.7585	12.7532	2.57576e-05	0.00417975
12.759	12.7528	-0.00138215	0.00369465
12.7595	12.7523	-0.000340091	0.00291857
12.7599	12.7519	9.83816e-05	0.00207414
12.7604	12.7514	0.000370401	0.00291701
12.7609	12.7509	0.000221621	0.0040253
12.7614	12.7504	-0.0016595	0.00377356
12.7618	12.75	-0.000284339	0.0029774
12.7623	12.7495	0.00011932	0.00221394
12.7628	12.749	0.000337388	0.00298691
12.7632	12.7486	0.000141328	0.00404242
12.7637	12.7481	-0.00145397	0.00378355
12.7642	12.7476	-0.00043492	0.00289784
12.7647	12.7472	8.09747e-05	0.00226065
12.7651	12.7467	0.00021595	0.00294503
12.7656	12.7462	0.000207282	0.00412526
12.7661	12.7457	-0.00148032	0.00364295
12.7666	12.7453	-0.000411645	0.00280212
12.767	12.7448	0.000262035	0.00220197
12.7675	12.7443	0.000281172	0.00303845
12.768	12.7438	0.000188876	0.00422335
12.7684	12.7434	-0.00136808	0.00366802
12.7689	12.7429	-0.000449455	0.002863
12.7694	12.7424	0.000371934	0.00225442
12.7699	12.742	0.000243558	0.00312982
12.7703	12.7415	0.000172807	0.00419409
12.7708	12.741	-0.00146138	0.00367162
12.7713	12.7405	-0.000315015	0.00266979
12.7717	12.7401	0.000420749	0.00222967
12.7722	12.7396	4.69634e-05	0.00300543
12.7727	12.7391	0.000181207	0.00413927
12.7732	12.7387	-0.00136862	0.00354551
12.7736	12.7382	-0.000300943	0.00272911
12.7741	12.7377	0.000374467	0.00226236
12.7746	12.7373	0.000108851	0.00299502
12.7751	12.7368	9.37802e-05	0.00414223
12.7755	12.7363	-0.00140976	0.00368686
12.776	12.7358	-0.000360031	0.0026679
12.7765	12.7353	0.000492303	0.00217673
12.7769	12.7348	-3.17116e-07	0.00301633
12.7774	12.7344	0.000106318	0.00422957
12.7779	12.7339	-0.00131413	0.00363065
12.7784	12.7334	-0.00049654	0.00259865
12.7788	12.7329	0.000631148	0.00237242
12.7793	12.7325	3.28917e-05	0.00308606
12.7798	12.732	-5.12003e-05	0.00429324
12.7802	12.7315	-0.00128319	0.0035192
12.7807	12.7311	-0.000413981	0.00254695
12.7812	12.7306	0.000613741	0.00234267
12.7817	12.7301	3.11615e-05	0.00305804
12.7821	12.7296	-1.38539e-05	0.00422802
12.7826	12.7292	-0.00115101	0.00361041
12.7831	12.7287	-0.00045106	0.00266871
12.7836	12.7282	0.000656491	0.00248811
12.784	12.7278	1.14183e-05	0.00316112
12.7845	12.7273	-8.95455e-05	0.00418147
12.785	12.7268	-0.0011188	0.00356886
12.7854	12.7264	-0.000465132	0.00251426
12.7859	12.7259	0.000592339	0.0023947
12.7864	12.7254	7.35732e-05	0.00320659
12.7869	12.7249	-0.000117422	0.004254
12.7873	12.7244	-0.00112087	0.00357165
12.7878	12.724	-0.00040551	0.00250008
12.7883	12.7235	0.0007958	0.0023648
12.7887	12.723	-4.91854e-06	0.00331713
12.7892	12.7226	-0.000275939	0.0042408
12.7897	12.7221	-0.00104211	0.00351856
12.7902	12.7217	-0.000534885	0.00240281
12.7906	12.7212	0.000725513	0.00241011
12.7911	12.7207	-0.00014223	0.00316923
12.7916	12.7202	-0.000258996	0.00416418
12.7921	12.7198	-0.000983827	0.00346455
12.7925	12.7193	-0.000592171	0.00239781
12.793	12.7188	0.000786062	0.0024056
12.7935	12.7184	2.57576e-05	0.00321905
12.7939	12.7179	-0.000399642	0.00422023
12.7944	12.7174	-0.000919407	0.00343948
12.7949	12.717	-0.00042165	0.00231326
12.7954	12.7165	0.000814741	0.00245837
12.7958	12.716	-4.22649e-05	0.0032869
12.7963	12.7155	-0.000375369	0.00414534
12.7968	12.715	-0.000938544	0.0034616
12.7972	12.7146	-0.000495006	0.00226811
12.7977	12.7141	0.000889363	0.00248172
12.7982	12.7136	-4.9399e-05	0.00327338
12.7987	12.7131	-0.000431585	0.004155
12.7991	12.7127	-0.000892797	0.00349209
12.7996	12.7122	-0.000500873	0.00224164
12.8001	12.7118	0.000915705	0.00250336
12.8006	12.7113	-2.61243e-05	0.0033028
12.801	12.7108	-0.000503941	0.00415935
12.8015	12.7103	-0.000796167	0.00334778
12.802	12.7098	-0.000552024	0.00225286
12.8024	12.7094	0.000951517	0.00257997
12.8029	12.7089	-0.000139894	0.00336614
12.8034	12.7085	-0.000623846	0.00414829
12.8039	12.708	-0.000775693	0.00347652
12.8043	12.7075	-0.000545158	0.00222205
12.8048	12.707	0.000993394	0.00255458
12.8053	12.7065	-0.000106417	0.00341334
12.8057	12.7061	-0.000625112	0.00410346
12.8062	12.7056	-0.00081764	0.00348307
12.8067	12.7051	-0.000715339	0.00218731
12.8072	12.7046	0.00106069	0.00255162
12.8076	12.7041	-0.000159298	0.00355174
12.8081	12.7037	-0.000614108	0.0041841
12.8086	12.7032	-0.000813306	0.00333238
12.8091	12.7027	-0.000703871	0.00211339
12.8095	12.7023	0.00095405	0.00251909
12.81	12.7018	-6.50045e-05	0.00345521
12.8105	12.7013	-0.000750153	0.00415591
12.8109	12.7008	-0.000654522	0.00343808
12.8114	12.7004	-0.00060651	0.00213658
12.8119	12.6999	0.000961719	0.00265078
12.8124	12.6994	-0.000128158	0.00350175
12.8128	12.699	-0.00067373	0.00413337
12.8133	12.6985	-0.000702872	0.00322635
12.8138	12.6981	-0.000662726	0.00216068
12.8142	12.6976	0.0010026	0.00263119
12.8147	12.6971	-0.000118688	0.0035265
12.8152	12.6966	-0.000803836	0.00396925
12.8157	12.6962	-0.00049934	0.00334188
12.8161	12.6957	-0.000622579	0.00214109
12.8166	12.6952	0.000958384	0.00269797
12.8171	12.6947	-4.65988e-05	0.00355404
12.8176	12.6942	-0.000903266	0.00402095
12.818	12.6938	-0.000668861	0.00330575
12.8185	12.6933	-0.00065272	0.00212331
12.819	12.6928	0.000808338	0.00268659
12.8194	12.6924	1.75169e-06	0.00365712
12.8199	12.6919	-0.000906869	0.0040661
12.8204	12.6915	-0.000502675	0.00325716
12.8209	12.691	-0.000552292	0.00210963
12.8213	12.6905	0.00102	0.00267258
12.8218	12.69	-0.000107416	0.00362507
12.8223	12.6896	-0.000949815	0.00399931
12.8227	12.6891	-0.000485803	0.00317857
12.8232	12.6886	-0.000492473	0.00210217
12.8237	12.6882	0.000785599	0.00270887
12.8242	12.6877	-4.60638e-05	0.00363442
12.8246	12.6872	-0.00118756	0.00389452
12.8251	12.6867	-0.00050321	0.00324938
12.8256	12.6863	-0.000480203	0.00202899
12.8261	12.6858	0.000818807	0.00275263
12.8265	12.6853	2.42238e-05	0.00371038
12.827	12.6848	-0.00109219	0.00392319
12.8275	12.6843	-0.000493204	0.00324036
12.8279	12.6839	-0.000513946	0.00204038
12.8284	12.6834	0.000787061	0.00269502
12.8289	12.6829	4.80334e-05	0.00368047
12.8294	12.6825	-0.00119089	0.0040035
12.8298	12.682	-0.000490404	0.00308327
12.8303	12.6815	-0.000407044	0.00209749
12.8308	12.681	0.000696103	0.00283294
12.8312	12.6806	1.21669e-06	0.00370817
12.8317	12.6801	-0.00118042	0.00400759
12.8322	12.6796	-0.000334758	0.00322044
12.8327	12.6792	-0.000297608	0.00219542
12.8331	12.6787	0.000703504	0.00283916
12.8336	12.6782	-6.11344e-05	0.0039154
12.8341	12.6778	-0.00126378	0.00396711
12.8346	12.6773	-0.000388638	0.00305058
12.835	12.6768	-0.000121755	0.00212412
12.8355	12.6763	0.000689968	0.00287948
12.836	12.6758	2.11562e-05	0.00388738
12.8364	12.6753	-0.00121236	0.00379708
12.8369	12.6749	-0.000342356	0.00310491
12.8374	12.6744	-0.000220918	0.00213502
12.8379	12.6739	0.000614008	0.00284834
12.8383	12.6734	0.000126989	0.00396302
12.8388	12.673	-0.00128319	0.00383289
12.8393	12.6725	-0.00034776	0.00307221
12.8397	12.672	-0.000156766	0.00205406
12.8402	12.6716	0.000582066	0.0028907
12.8407	12.6711	9.91129e-05	0.00399448
12.8412	12.6706	-0.00129933	0.00391369
12.8416	12.6702	-0.000391973	0.0029511
12.8421	12.6697	-4.71338e-05	0.00210839
12.8426	12.6692	0.000529917	0.00286595
12.8431	12.6688	0.000140062	0.00405069
12.8435	12.6683	-0.00141383	0.0037893
12.844	12.6678	-0.000374566	0.00291185
12.8445	12.6674	-6.45235e-06	0.00220181
12.8449	12.6669	0.000418484	0.00274935
12.8454	12.6664	9.17113e-05	0.00400554
12.8459	12.6659	-0.00140896	0.00373464
12.8464	12.6655	-0.000467397	0.00295545
12.8468	12.665	-8.25365e-06	0.00205079
12.8473	12.6645	0.000463963	0.00276648
12.8478	12.664	7.25743e-05	0.00412322
12.8482	12.6636	-0.00152273	0.00373448
12.8487	12.6631	-0.000385303	0.00286842
12.8492	12.6626	0.000118321	0.00211585
12.8497	12.6622	0.000453494	0.00295872
12.8501	12.6617	0.000205748	0.0040806
12.8506	12.6612	-0.00151353	0.00371054
12.8511	12.6608	-0.000230923	0.00286407
12.8516	12.6603	0.000265032	0.00221689
12.852	12.6598	0.000303644	0.0029824
12.8525	12.6594	0.000214951	0.00422007
12.853	12.6589	-0.00142763	0.00368064
12.8534	12.6584	-0.00033829	0.00287653
12.8539	12.658	0.00029371	0.00218436
12.8544	12.6575	0.000261768	0.00287981
12.8549	12.657	0.0001582	0.0040479
12.8553	12.6565	-0.00145884	0.00366212
12.8558	12.656	-0.000409844	0.00283015
12.8563	12.6556	0.000161803	0.00212241
12.8567	12.6551	0.000179941	0.00290611
12.8572	12.6546	0.000241293	0.0041564
12.8577	12.6541	-0.00136375	0.00364638
12.8582	12.6537	-0.000223522	0.00281565
12.8586	12.6532	0.000219285	0.00218124
12.8591	12.6527	6.41028e-05	0.00302255
12.8596	12.6523	0.000158468	0.00414255
12.8601	12.6518	-0.00136681	0.00365556
12.8605	12.6513	-0.000359496	0.00269003
12.861	12.6508	0.000348927	0.00212863
12.8615	12.6503	0.000282706	0.0029729
12.8619	12.6499	1.32197e-05	0.00430259
12.8624	12.6494	-0.00139769	0.00357337
12.8629	12.6489	-0.000333956	0.00278843
12.8634	12.6485	0.000461698	0.00221099
12.8638	12.648	0.000247963	0.00295733
12.8643	12.6475	-6.65383e-05	0.00416402
12.8648	12.647	-0.00137088	0.0034798
12.8652	12.6466	-0.000368966	0.00269453
12.8657	12.6461	0.000370936	0.00217845
12.8662	12.6456	1.72861e-05	0.00296994
12.8667	12.6451	4.16307e-05	0.00425465
12.8671	12.6446	-0.00132487	0.00351995
12.8676	12.6442	-0.000226054	0.00268643
12.8681	12.6437	0.000445557	0.00223294
12.8686	12.6432	3.80281e-05	0.00293381
12.869	12.6428	-1.05188e-05	0.00419049
12.8695	12.6423	-0.00121597	0.00347513
12.87	12.6419	-0.000371499	0.00252032
12.8704	12.6414	0.000582601	0.00228137
12.8709	12.6409	-5.45354e-06	0.00305541
12.8714	12.6404	-0.000174369	0.00413509
12.8719	12.64	-0.00119883	0.0035796
12.8723	12.6395	-0.000361564	0.00248623
12.8728	12.639	0.000645755	0.00227729
12.8733	12.6386	-5.40004e-05	0.00305525
12.8737	12.6381	-0.000126357	0.00424793
12.8742	12.6376	-0.0012075	0.00355576
12.8747	12.6372	-0.000441055	0.00256064
12.8752	12.6367	0.000631148	0.00243314
12.8756	12.6362	-7.85413e-05	0.00313154
12.8761	12.6357	-0.000149364	0.00425088
12.8766	12.6353	-0.00111627	0.00351872
12.8771	12.6348	-0.000418315	0.00257326
12.8775	12.6343	0.000660558	0.00237569
12.878	12.6338	1.16858e-05	0.00313932
12.8785	12.6334	-0.000192578	0.00415968
12.8789	12.6329	-0.00118169	0.00356199
12.8794	12.6324	-0.000412715	0.00237258
12.8799	12.632	0.000705306	0.00236668
12.8804	12.6315	-7.781e-05	0.00326978
12.8808	12.631	-0.000198713	0.00415312
12.8813	12.6305	-0.000975159	0.0035002
12.8818	12.6301	-0.000518548	0.00235341
12.8822	12.6296	0.000798333	0.0024596
12.8827	12.6291	-6.04031e-05	0.00329034
12.8832	12.6287	-0.000272336	0.00418893
12.8837	12.6282	-0.000960284	0.00359484
12.8841	12.6277	-0.000501943	0.00234332
12.8846	12.6272	0.000861023	0.00250025
12.8851	12.6268	-0.000151629	0.0033028
12.8856	12.6263	-0.000415783	0.0041564
12.886	12.6258	-0.000967222	0.00341301
12.8865	12.6253	-0.000428321	0.00235857
12.887	12.6249	0.00093411	0.00260144
12.8874	12.6244	-0.000117689	0.00328518
12.8879	12.6239	-0.000391706	0.00422957
12.8884	12.6234	-0.000948549	0.0035651
12.8889	12.623	-0.000522347	0.00228867
12.8893	12.6225	0.000874827	0.00264799
12.8898	12.622	-3.17958e-05	0.00330108
12.8903	12.6216	-0.000458462	0.00421121
12.8907	12.6211	-0.000855718	0.0034834
12.8912	12.6206	-0.000594436	0.00224975
12.8917	12.6201	0.00101594	0.002608
12.8922	12.6196	-0.000195111	0.00345333
12.8926	12.6192	-0.000517282	0.0041178
12.8931	12.6187	-0.000819442	0.0033881
12.8936	12.6182	-0.000553558	0.00224073
12.8941	12.6178	0.000905236	0.00263865
12.8945	12.6173	-9.16143e-05	0.00338015
12.895	12.6168	-0.000596237	0.00412666
12.8955	12.6163	-0.000822242	0.00344227
12.8959	12.6159	-0.000660924	0.0021034
12.8964	12.6154	0.000938177	0.00261218
12.8969	12.6149	-8.84755e-05	0.00340555
12.8974	12.6144	-0.000627448	0.00408929
12.8978	12.614	-0.000734083	0.00345489
12.8983	12.6135	-0.000590369	0.00222811
12.8988	12.613	0.00101927	0.00262947
