# 1304     AichiSR QXAFS
# Start     : 8.9544
# End       : 9.0544
# Dir       : Forward
# Points    : 300
# ScanTime  : 1.01549
# Date      : 13.04.24 00:17
# Ring Cur. : 0.9[mA]
12.7557	12.7563	0.000276303	0.00431053
12.7562	12.7558	-0.00147698	0.00370367
12.7566	12.7553	-0.000316549	0.00286407
12.7571	12.7548	0.000302646	0.00228539
12.7576	12.7544	0.000231555	0.00293988
12.7581	12.7539	0.000141328	0.00424965
12.7585	12.7534	-0.00139162	0.00361229
12.759	12.753	-0.0003733	0.00271322
12.7595	12.7525	0.000318519	0.0021973
12.7599	12.752	0.000234355	0.00295716
12.7604	12.7516	0.000152332	0.0042263
12.7609	12.7511	-0.00133073	0.0036168
12.7614	12.7506	-0.000335954	0.00275649
12.7618	12.7502	0.000428953	0.00224835
12.7623	12.7497	0.000138261	0.00305369
12.7628	12.7492	5.85026e-05	0.00431021
12.7632	12.7488	-0.00135528	0.00363049
12.7637	12.7483	-0.000471999	0.00275305
12.7642	12.7478	0.000502041	0.00227498
12.7647	12.7474	6.43703e-05	0.00300903
12.7651	12.7469	0.000135728	0.00440534
12.7656	12.7464	-0.00132487	0.00352838
12.7661	12.7459	-0.000336756	0.00268986
12.7666	12.7455	0.000576733	0.002402
12.767	12.745	0.000174073	0.00302255
12.7675	12.7445	9.4779e-05	0.00433077
12.768	12.744	-0.00127912	0.00361664
12.7684	12.7436	-0.000254465	0.00264316
12.7689	12.7431	0.000457828	0.00234332
12.7694	12.7426	5.33662e-05	0.00312998
12.7699	12.7422	7.35732e-05	0.0043152
12.7703	12.7417	-0.00118502	0.00359984
12.7708	12.7412	-0.000359228	0.00270978
12.7713	12.7407	0.000642883	0.00231465
12.7717	12.7403	6.03039e-05	0.00311752
12.7722	12.7398	-3.65935e-05	0.00431021
12.7727	12.7393	-0.00120576	0.00364778
12.7732	12.7389	-0.000413714	0.0027378
12.7736	12.7384	0.000561395	0.0024165
12.7741	12.7379	-3.55947e-05	0.00305214
12.7746	12.7375	-5.62655e-05	0.00422581
12.7751	12.737	-0.00116762	0.00361025
12.7755	12.7365	-0.000443391	0.00266855
12.776	12.736	0.000728313	0.0024442
12.7765	12.7355	8.3311e-05	0.00317792
12.7769	12.7351	-0.000104616	0.00421868
12.7774	12.7346	-0.00111673	0.00363549
12.7779	12.7341	-0.000444925	0.00253917
12.7784	12.7336	0.000711173	0.00245649
12.7788	12.7331	-2.4323e-05	0.00333066
12.7793	12.7327	-4.32637e-05	0.00420343
12.7798	12.7322	-0.00101757	0.00362271
12.7802	12.7318	-0.000424451	0.00254556
12.7807	12.7313	0.000755654	0.0024982
12.7812	12.7308	5.89664e-05	0.00320144
12.7817	12.7303	-0.00014503	0.00428235
12.7821	12.7298	-0.00115128	0.00359173
12.7826	12.7294	-0.000304011	0.00265921
12.7831	12.7289	0.000835679	0.0023416
12.7836	12.7285	-3.04583e-05	0.00337769
12.784	12.728	-0.000312946	0.00429587
12.7845	12.7275	-0.000964886	0.00358518
12.785	12.727	-0.000462796	0.00246755
12.7854	12.7266	0.000860755	0.00249369
12.7859	12.7261	-1.99891e-05	0.00332942
12.7864	12.7256	-0.000277205	0.00427907
12.7869	12.7251	-0.000905602	0.00362008
12.7873	12.7247	-0.000553558	0.00243158
12.7878	12.7242	0.000785331	0.00257949
12.7883	12.7237	2.60251e-05	0.00331009
12.7887	12.7232	-0.000343426	0.00420917
12.7892	12.7228	-0.00101063	0.00346299
12.7897	12.7223	-0.000521348	0.00250943
12.7902	12.7219	0.000889363	0.00254228
12.7906	12.7214	-5.27341e-05	0.00340399
12.7911	12.7209	-0.000308612	0.00427112
12.7916	12.7204	-0.00088486	0.00362631
12.7921	12.72	-0.000476333	0.00241617
12.7925	12.7195	0.000982194	0.00261825
12.793	12.719	-0.00010895	0.0033895
12.7935	12.7186	-0.000397573	0.00415452
12.7939	12.7181	-0.000750688	0.00355034
12.7944	12.7176	-0.000554093	0.00231186
12.7949	12.7172	0.000892698	0.00267773
12.7954	12.7167	5.0031e-05	0.00346004
12.7958	12.7162	-0.000392972	0.00422941
12.7963	12.7157	-0.000792101	0.00359624
12.7968	12.7153	-0.000538487	0.00230939
12.7972	12.7148	0.000969388	0.00269518
12.7977	12.7143	-9.44144e-05	0.00344571
12.7982	12.7138	-0.000505742	0.00423441
12.7987	12.7134	-0.000832247	0.00355158
12.7991	12.7129	-0.000630516	0.00224057
12.7996	12.7124	0.000966855	0.00262464
12.8001	12.712	-0.000117618	0.00354191
12.8006	12.7115	-0.000544088	0.00424015
12.801	12.711	-0.000709007	0.00335197
12.8015	12.7105	-0.00055329	0.00224508
12.802	12.7101	0.00100213	0.00267011
12.8024	12.7096	-0.000130691	0.00345226
12.8029	12.7091	-0.000635849	0.00419967
12.8034	12.7087	-0.00070874	0.0035111
12.8039	12.7082	-0.000710006	0.00215682
12.8043	12.7077	0.00108803	0.00270371
12.8048	12.7072	-1.41214e-05	0.00349832
12.8053	12.7068	-0.000610844	0.00424917
12.8057	12.7063	-0.000838382	0.00344743
12.8062	12.7058	-0.000578901	0.00235857
12.8067	12.7053	0.000935912	0.00277598
12.8072	12.7048	-7.36724e-05	0.00355764
12.8076	12.7044	-0.000656858	0.00415468
12.8081	12.7039	-0.000627181	0.0034798
12.8086	12.7034	-0.000556626	0.002225
12.8091	12.7029	0.000989595	0.00276722
12.8095	12.7025	-8.36777e-05	0.00349241
12.81	12.702	-0.000725077	0.0041673
12.8105	12.7015	-0.000675531	0.00347201
12.8109	12.7011	-0.000595702	0.00225753
12.8114	12.7006	0.00097786	0.0027573
12.8119	12.7001	-6.71985e-06	0.00358969
12.8124	12.6996	-0.000881061	0.00424498
12.8128	12.6992	-0.000689068	0.0034085
12.8133	12.6987	-0.000607776	0.00210045
12.8138	12.6983	0.00092851	0.00264111
12.8142	12.6978	-0.000168768	0.0036168
12.8147	12.6973	-0.000914538	0.00414657
12.8152	12.6968	-0.000488603	0.00346562
12.8157	12.6964	-0.000642519	0.00217239
12.8161	12.6959	0.000973722	0.00274591
12.8166	12.6954	-8.4409e-05	0.00360607
12.8171	12.6949	-0.000815108	0.00408634
12.8176	12.6945	-0.000488603	0.00340432
12.818	12.694	-0.000587837	0.00224787
12.8185	12.6935	0.000984994	0.00272207
12.819	12.693	-1.63865e-05	0.00375537
12.8194	12.6926	-0.000850118	0.00419344
12.8199	12.6921	-0.000544088	0.00348635
12.8204	12.6917	-0.000650919	0.00228137
12.8209	12.6912	0.000875558	0.00283138
12.8213	12.6907	2.60251e-05	0.00373652
12.8218	12.6902	-0.000882863	0.00407839
12.8223	12.6898	-0.000445656	0.00337704
12.8227	12.6893	-0.000484269	0.00226204
12.8232	12.6889	0.000889898	0.00285801
12.8237	12.6884	-7.18366e-06	0.00366163
12.8242	12.6879	-0.00106792	0.00407077
12.8246	12.6874	-0.000364632	0.00328363
12.8251	12.687	-0.000529017	0.00223713
12.8256	12.6865	0.000782264	0.00281082
12.8261	12.686	-7.06048e-05	0.00386714
12.8265	12.6855	-0.000935547	0.0041455
12.827	12.685	-0.000441055	0.00325126
12.8275	12.6846	-0.000471999	0.00219075
12.8279	12.6841	0.000799599	0.00271338
12.8284	12.6836	1.27558e-05	0.0038578
12.8289	12.6831	-0.00112774	0.00398654
12.8294	12.6827	-0.000463795	0.00312842
12.8298	12.6822	-0.000365898	0.00219075
12.8303	12.6817	0.000795533	0.00284367
12.8308	12.6813	3.06265e-05	0.0038206
12.8312	12.6808	-0.00119883	0.00405381
12.8317	12.6803	-0.000500606	0.00320144
12.8322	12.6798	-0.000451524	0.00200301
12.8327	12.6794	0.000689968	0.00275976
12.8331	12.6789	8.58436e-05	0.00395277
12.8336	12.6784	-0.0011262	0.00402283
12.8341	12.678	-0.00046433	0.00326543
12.8346	12.6775	-0.000298143	0.00219418
12.835	12.677	0.000683297	0.00274452
12.8355	12.6765	3.4693e-05	0.00386075
12.836	12.6761	-0.00116815	0.00395073
12.8364	12.6756	-0.000533886	0.00308703
12.8369	12.6751	-0.00029941	0.00202851
12.8374	12.6746	0.000767193	0.00277082
12.8379	12.6741	7.0238e-05	0.00382994
12.8383	12.6737	-0.0012165	0.00392426
12.8388	12.6732	-0.00035336	0.00306008
12.8393	12.6727	-0.00012122	0.00218919
12.8397	12.6723	0.000615275	0.00278746
12.8402	12.6718	6.07677e-05	0.00390016
12.8407	12.6713	-0.00123437	0.00390451
12.8412	12.6709	-0.000355697	0.00308827
12.8416	12.6704	-9.16143e-05	0.00211494
12.8421	12.6699	0.00062528	0.00295298
12.8426	12.6694	7.63733e-05	0.00393892
12.8431	12.669	-0.00127118	0.00395916
12.8435	12.6685	-0.000383305	0.00306958
12.844	12.6681	-0.000174636	0.00207881
12.8445	12.6676	0.000535053	0.00286236
12.8449	12.6671	-2.31473e-06	0.00401816
12.8454	12.6666	-0.00133514	0.00382371
12.8459	12.6662	-0.000358764	0.00305353
12.8464	12.6657	-9.23456e-05	0.00215757
12.8468	12.6652	0.00056366	0.00288399
12.8473	12.6647	0.000229754	0.00407512
12.8478	12.6643	-0.00135328	0.00382231
12.8482	12.6638	-0.00039884	0.00313744
12.8487	12.6633	-4.78652e-05	0.00218108
12.8492	12.6628	0.000457828	0.00293504
12.8497	12.6624	0.00014206	0.00418582
12.8501	12.6619	-0.00139262	0.00395277
12.8506	12.6615	-0.00032222	0.0029919
12.8511	12.661	3.26953e-05	0.00220304
12.8516	12.6605	0.000393408	0.00286407
12.852	12.66	0.000230289	0.00417975
12.8525	12.6596	-0.0014353	0.00370882
12.853	12.6591	-0.000253663	0.00305557
12.8534	12.6586	0.000159466	0.0021551
12.8539	12.6582	0.000442222	0.00308966
12.8544	12.6577	0.000289376	0.00430554
12.8549	12.6572	-0.00143963	0.00378806
12.8553	12.6567	-0.000337291	0.00303206
12.8558	12.6563	0.000121389	0.00225426
12.8563	12.6558	0.000375537	0.00294176
12.8567	12.6553	0.000218019	0.00416885
12.8572	12.6548	-0.00143657	0.00379987
12.8577	12.6543	-0.000297145	0.00296076
12.8582	12.6539	0.000108119	0.00228088
12.8586	12.6534	0.000292711	0.00292791
12.8591	12.6529	0.000262499	0.0041673
12.8596	12.6525	-0.00138775	0.00368466
12.8601	12.652	-0.000220454	0.00295421
12.8605	12.6515	0.000197812	0.0023226
12.861	12.6511	0.000347661	0.00300779
12.8615	12.6506	0.000241293	0.00415968
12.8619	12.6501	-0.00149665	0.00371505
12.8624	12.6496	-0.000302745	0.00287325
12.8629	12.6492	0.000236424	0.00225769
12.8634	12.6487	0.000165869	0.00304935
12.8638	12.6482	0.000185541	0.00429045
12.8643	12.6477	-0.00137675	0.0036495
12.8648	12.6473	-0.000374566	0.00296076
12.8652	12.6468	0.000293175	0.00233865
12.8657	12.6463	0.000338191	0.00295077
12.8662	12.6458	0.000241828	0.00418533
12.8667	12.6453	-0.00151633	0.00361058
12.8671	12.6449	-0.000305812	0.00284244
12.8676	12.6444	0.00026323	0.00222623
12.8681	12.6439	0.000199613	0.00302583
12.8686	12.6434	0.000285239	0.00426817
12.869	12.643	-0.00121056	0.00371612
12.8695	12.6425	-0.000332422	0.00289956
12.87	12.6421	0.000284704	0.00225286
12.8704	12.6416	0.000137993	0.00310679
12.8709	12.6411	0.00024256	0.00435503
12.8714	12.6407	-0.00141103	0.0036867
12.8719	12.6402	-0.000388442	0.00278983
12.8723	12.6397	0.000549589	0.00234816
12.8728	12.6393	8.97137e-05	0.00312203
12.8733	12.6388	0.000110385	0.004273
12.8737	12.6383	-0.00131053	0.00372112
12.8742	12.6379	-0.000395576	0.00277238
12.8747	12.6374	0.000408014	0.00240887
12.8752	12.6369	0.000154597	0.00298739
12.8756	12.6364	0.000101182	0.00439117
12.8761	12.636	-0.00126405	0.00377217
12.8766	12.6355	-0.000367165	0.00261374
12.8771	12.635	0.000534785	0.00243657
12.8775	12.6345	0.000164068	0.00308327
12.878	12.634	1.16858e-05	0.00430087
12.8785	12.6336	-0.0012267	0.00366023
12.8789	12.6331	-0.000436186	0.00273657
12.8794	12.6326	0.000430219	0.0022935
12.8799	12.6322	5.57025e-05	0.00314571
12.8804	12.6317	-3.86623e-05	0.00425121
12.8808	12.6312	-0.00119476	0.00366539
12.8813	12.6308	-0.000433386	0.00271461
12.8818	12.6303	0.000641617	0.00242879
12.8822	12.6298	7.91734e-05	0.00319397
12.8827	12.6293	-1.07863e-05	0.00434913
12.8832	12.6289	-0.0012379	0.0036
12.8837	12.6284	-0.000336489	0.00254695
12.8841	12.6279	0.000674094	0.00244452
12.8846	12.6275	6.97742e-05	0.00321061
12.8851	12.627	-1.05188e-05	0.00422228
12.8856	12.6265	-0.00122237	0.00369325
12.886	12.626	-0.000373104	0.00257326
12.8865	12.6256	0.000713242	0.00242272
12.887	12.6251	8.25085e-05	0.00315956
12.8874	12.6246	-6.29357e-05	0.00433856
12.8879	12.6241	-0.00103958	0.00359329
12.8884	12.6236	-0.000413179	0.0026212
12.8889	12.6232	0.000740316	0.00245059
12.8893	12.6227	8.81799e-05	0.00332148
12.8898	12.6222	-5.86018e-05	0.00427333
12.8903	12.6218	-0.00107766	0.00348635
12.8907	12.6213	-0.000465596	0.00249107
12.8912	12.6208	0.000765124	0.00249418
12.8917	12.6203	-4.42625e-05	0.0033196
12.8922	12.6199	-0.000202512	0.00422458
12.8926	12.6194	-0.00110346	0.00361648
12.8931	12.6189	-0.000459996	0.00258711
12.8936	12.6185	0.000764125	0.00246804
12.8941	12.618	2.47588e-05	0.00327944
12.8945	12.6175	-0.000314551	0.00424793
12.895	12.617	-0.000997898	0.00357837
12.8955	12.6166	-0.000435919	0.00252156
12.8959	12.6161	0.000818272	0.00263849
12.8964	12.6156	-1.17851e-05	0.00335541
12.8969	12.6151	-0.000263133	0.004195
12.8974	12.6147	-0.000951349	0.00367736
12.8978	12.6142	-0.000479668	0.00246976
12.8983	12.6137	0.000968657	0.00260144
12.8988	12.6133	-0.000103617	0.003217
