# 1304     AichiSR QXAFS
# Start     : 8.9544
# End       : 9.0544
# Dir       : Forward
# Points    : 300
# ScanTime  : 1.01549
# Date      : 13.04.23 23:06
# Ring Cur. : 0.9[mA]
12.7557	12.7561	-0.000987625	0.00406487
12.7562	12.7557	-0.000498608	0.00326731
12.7566	12.7552	-0.000499875	0.00206185
12.7571	12.7547	0.000797067	0.00272551
12.7576	12.7542	5.64338e-05	0.00374447
12.7581	12.7538	-0.00111087	0.0039758
12.7585	12.7533	-0.000466595	0.00336491
12.759	12.7528	-0.000456661	0.00217502
12.7595	12.7524	0.000847415	0.00282531
12.7599	12.7519	7.89059e-05	0.00372702
12.7604	12.7514	-0.00105618	0.00400087
12.7609	12.751	-0.000398643	0.00316563
12.7614	12.7505	-0.000333688	0.00222983
12.7618	12.75	0.000770992	0.00283031
12.7623	12.7496	-9.78746e-06	0.00387616
12.7628	12.7491	-0.00122364	0.00396925
12.7632	12.7486	-0.000452594	0.0032483
12.7637	12.7482	-0.0003761	0.0021406
12.7642	12.7477	0.000668494	0.00281114
12.7647	12.7472	7.99759e-05	0.00391261
12.7651	12.7467	-0.0012055	0.00398342
12.7656	12.7463	-0.000393239	0.00309261
12.7661	12.7458	-0.00040271	0.00217936
12.7666	12.7453	0.00056646	0.00288743
12.767	12.7448	1.93549e-05	0.00394391
12.7675	12.7444	-0.00118782	0.00379118
12.768	12.7439	-0.000320883	0.00306508
12.7684	12.7434	-0.000161902	0.00213577
12.7689	12.7429	0.000560058	0.00281909
12.7694	12.7425	8.68424e-05	0.00385141
12.7699	12.742	-0.00126758	0.00389221
12.7703	12.7416	-0.000339092	0.00303066
12.7708	12.7411	-0.000117154	0.0021515
12.7713	12.7406	0.000543721	0.00286907
12.7717	12.7401	0.000137726	0.00397301
12.7722	12.7397	-0.001344	0.00390746
12.7727	12.7392	-0.000371499	0.00302084
12.7732	12.7387	-0.000216317	0.00216739
12.7736	12.7383	0.000640351	0.0028871
12.7741	12.7378	0.000196813	0.00399137
12.7746	12.7373	-0.00126885	0.00391385
12.7751	12.7368	-0.000284339	0.00312236
12.7755	12.7364	-0.000111821	0.00208939
12.776	12.7359	0.000496708	0.00290611
12.7765	12.7354	0.00012879	0.00392196
12.7769	12.7349	-0.00139669	0.00394794
12.7774	12.7344	-0.000234722	0.0029402
12.7779	12.7339	-4.65104e-06	0.002161
12.7784	12.7335	0.000544987	0.00285924
12.7788	12.733	0.000130324	0.0039168
12.7793	12.7325	-0.00138802	0.00378651
12.7798	12.7321	-0.000217654	0.00292463
12.7802	12.7316	-2.61243e-05	0.00220443
12.7807	12.7311	0.000423816	0.00278655
12.7812	12.7306	0.00012599	0.00414657
12.7817	12.7302	-0.00139462	0.00374603
12.7821	12.7297	-0.000371766	0.00297461
12.7826	12.7292	6.84367e-05	0.00222795
12.7831	12.7288	0.000329255	0.00288727
12.7836	12.7283	0.000158468	0.00407839
12.784	12.7278	-0.00141563	0.00378667
12.7845	12.7274	-0.000363098	0.00298331
12.785	12.7269	0.000166868	0.00222049
12.7854	12.7264	0.00034306	0.00282
12.7859	12.7259	0.000177141	0.00404742
12.7864	12.7255	-0.00155141	0.00372595
12.7869	12.725	-0.000354163	0.00297011
12.7873	12.7245	6.08561e-06	0.00214839
12.7878	12.724	0.000406944	0.00296339
12.7883	12.7236	0.000120854	0.00422426
12.7887	12.7231	-0.00147238	0.00375971
12.7892	12.7226	-0.000363366	0.00282392
12.7897	12.7222	0.000203679	0.00220787
12.7902	12.7217	0.000263034	0.00288694
12.7906	12.7212	0.000215415	0.00415672
12.7911	12.7208	-0.00150612	0.0037348
12.7916	12.7203	-0.000312215	0.00297649
12.7921	12.7198	0.000139527	0.00226081
12.7925	12.7194	0.000305981	0.00292291
12.793	12.7189	0.000167403	0.00414083
12.7935	12.7184	-0.00144504	0.00361648
12.7939	12.718	-0.00017057	0.00290455
12.7944	12.7175	0.000274502	0.00222688
12.7949	12.717	0.000289573	0.00298567
12.7954	12.7165	0.000255365	0.00415624
12.7958	12.7161	-0.00132487	0.00371006
12.7963	12.7156	-0.000344693	0.0028018
12.7968	12.7151	0.000332787	0.00218296
12.7972	12.7146	0.000225688	0.00295904
12.7977	12.7141	0.000298847	0.00425325
12.7982	12.7137	-0.00142483	0.00367097
12.7987	12.7132	-0.000252664	0.00278779
12.7991	12.7127	0.000388806	0.00227621
12.7996	12.7123	0.000123921	0.0030596
12.8001	12.7118	0.000193745	0.00434242
12.8006	12.7113	-0.0013282	0.00357804
12.801	12.7109	-0.00028227	0.00277082
12.8015	12.7104	0.000445022	0.00233333
12.802	12.7099	0.000255097	0.00297945
12.8024	12.7094	0.000185541	0.00425121
12.8029	12.709	-0.00133	0.00369309
12.8034	12.7085	-0.000309415	0.00275058
12.8039	12.708	0.000345325	0.00231326
12.8043	12.7076	0.000204214	0.00304484
12.8048	12.7071	0.00014873	0.00426039
12.8053	12.7066	-0.00131206	0.00356043
12.8057	12.7061	-0.000334955	0.00262496
12.8062	12.7056	0.00045756	0.00237397
12.8067	12.7052	0.000161	0.00303657
12.8072	12.7047	3.82956e-05	0.00421384
12.8076	12.7042	-0.00130313	0.00368031
12.8081	12.7037	-0.000335954	0.00257465
12.8086	12.7032	0.000489039	0.00234021
12.8091	12.7028	0.000104249	0.00315956
12.8095	12.7023	-2.05241e-05	0.004273
12.81	12.7019	-0.00129879	0.00365073
12.8105	12.7014	-0.000474799	0.00263193
12.8109	12.7009	0.000604074	0.00235562
12.8114	12.7004	0.00012599	0.0032497
12.8119	12.7	9.50465e-05	0.00437608
12.8124	12.6995	-0.00136728	0.00367704
12.8128	12.699	-0.000357427	0.00259522
12.8133	12.6986	0.000633752	0.00234816
12.8138	12.6981	6.77054e-05	0.00316423
12.8142	12.6976	-1.25876e-05	0.00425448
12.8147	12.6972	-0.00107305	0.00364467
12.8152	12.6967	-0.000422382	0.0026044
12.8157	12.6962	0.000620679	0.00231669
12.8161	12.6957	5.69688e-05	0.00316906
12.8166	12.6953	-0.000117154	0.00426989
12.8171	12.6948	-0.00107125	0.00352167
12.8176	12.6943	-0.000387372	0.00247501
12.818	12.6938	0.000690699	0.00245042
12.8185	12.6934	7.35732e-05	0.00316391
12.819	12.6929	-0.000181574	0.0043311
12.8194	12.6924	-0.000975426	0.00361492
12.8199	12.692	-0.000520082	0.00252843
12.8204	12.6915	0.000764125	0.00238938
12.8209	12.691	-7.7275e-05	0.00334623
12.8213	12.6906	-0.000138092	0.00413632
12.8218	12.6901	-0.00109173	0.00350798
12.8223	12.6896	-0.000414178	0.00248205
12.8227	12.6892	0.000721375	0.00248189
12.8232	12.6887	-1.35864e-05	0.0032438
12.8237	12.6882	-0.000231191	0.00422614
12.8242	12.6878	-0.00102164	0.00349381
12.8246	12.6873	-0.00048327	0.00238332
12.8251	12.6868	0.000765855	0.00240356
12.8256	12.6863	-3.93936e-05	0.00326683
12.8261	12.6858	-0.000278471	0.00424793
12.8265	12.6854	-0.000982025	0.0035855
12.827	12.6849	-0.000486534	0.00228556
12.8275	12.6844	0.000829277	0.0024705
12.8279	12.6839	-4.9399e-05	0.00326978
12.8284	12.6834	-0.000288405	0.00419548
12.8289	12.683	-0.000946748	0.00352774
12.8294	12.6825	-0.000454859	0.00240527
12.8298	12.6821	0.000962254	0.00249541
12.8303	12.6816	4.2362e-05	0.00342375
12.8308	12.6811	-0.000347493	0.00418582
12.8312	12.6806	-0.000754219	0.00348447
12.8317	12.6801	-0.000393774	0.00233677
12.8322	12.6797	0.000929242	0.00249262
12.8327	12.6792	-0.000152164	0.00334
12.8331	12.6788	-0.000463063	0.00428358
12.8336	12.6783	-0.000889997	0.00340539
12.8341	12.6778	-0.000525682	0.00239331
12.8346	12.6773	0.00103661	0.00256826
12.835	12.6768	-5.96006e-05	0.00349397
12.8355	12.6764	-0.000392972	0.00422614
12.836	12.6759	-0.000801036	0.00349553
12.8364	12.6754	-0.000468663	0.00226097
12.8369	12.6749	0.00111283	0.00263086
12.8374	12.6744	-4.47975e-05	0.00339384
12.8379	12.674	-0.000450258	0.00412698
12.8383	12.6735	-0.000805637	0.00351888
12.8388	12.673	-0.000505742	0.0022549
12.8393	12.6726	0.000907768	0.00260268
12.8397	12.6721	-0.000153698	0.00343014
12.8402	12.6716	-0.000545354	0.00422785
12.8407	12.6712	-0.000797968	0.00356215
12.8412	12.6707	-0.000608507	0.00218124
12.8416	12.6702	0.000932844	0.00276755
12.8421	12.6698	-6.68058e-05	0.00343169
12.8426	12.6693	-0.000559693	0.00407388
12.8431	12.6688	-0.000714875	0.00355281
12.8435	12.6684	-0.000617978	0.00223933
12.844	12.6679	0.00100593	0.00262013
12.8445	12.6674	-9.28806e-05	0.00359205
12.8449	12.667	-0.000663457	0.00411248
12.8454	12.6665	-0.000633583	0.0034471
12.8459	12.666	-0.000661192	0.00229302
12.8464	12.6655	0.000979322	0.00262415
12.8468	12.665	-3.86623e-05	0.00347201
12.8473	12.6646	-0.000607241	0.00412682
12.8478	12.6641	-0.000593972	0.00336008
12.8482	12.6636	-0.000638185	0.00217936
12.8487	12.6632	0.00104481	0.00270216
12.8492	12.6627	-0.000121755	0.0035265
12.8497	12.6622	-0.000744285	0.00415017
12.8501	12.6618	-0.000767025	0.00347652
12.8506	12.6613	-0.000660657	0.00235266
12.8511	12.6608	0.000980125	0.00268396
12.8516	12.6603	-7.29411e-05	0.00369916
12.852	12.6599	-0.000776495	0.0041863
12.8525	12.6594	-0.000540021	0.00341768
12.853	12.6589	-0.000656591	0.00213051
12.8534	12.6585	0.000964252	0.00279074
12.8539	12.658	-0.000105882	0.00356838
12.8544	12.6575	-0.000878993	0.00416214
12.8549	12.6571	-0.000505742	0.00343669
12.8553	12.6566	-0.000580364	0.00217673
12.8558	12.6561	0.000877895	0.00273067
12.8563	12.6556	-3.86623e-05	0.0036014
12.8567	12.6551	-0.000889997	0.00411436
12.8572	12.6547	-0.000539486	0.00334156
12.8577	12.6542	-0.000667327	0.00219821
12.8582	12.6537	0.000978591	0.00274435
12.8586	12.6532	-6.80722e-05	0.00360435
12.8591	12.6528	-0.0010043	0.00406315
12.8596	12.6523	-0.000576833	0.00330247
12.8601	12.6518	-0.000443391	0.00215231
12.8605	12.6514	0.000934842	0.00261497
12.861	12.6509	-7.98616e-06	0.00372546
12.8615	12.6504	-0.000973554	0.00405536
12.8619	12.6499	-0.000515944	0.00328878
12.8624	12.6495	-0.000539754	0.00213282
12.8629	12.649	0.000878893	0.00275804
12.8634	12.6485	-3.63972e-05	0.00371907
12.8638	12.6481	-0.000967222	0.00396678
12.8643	12.6476	-0.000533886	0.00316579
12.8648	12.6471	-0.00049654	0.00222704
12.8652	12.6466	0.000872491	0.00270683
12.8657	12.6461	5.36337e-05	0.00373169
12.8662	12.6457	-0.00106232	0.00398063
12.8667	12.6452	-0.0003677	0.00327928
12.8671	12.6447	-0.000405046	0.00207554
12.8676	12.6442	0.000832612	0.00278746
12.8681	12.6438	5.44362e-05	0.00376659
12.8686	12.6433	-0.00108966	0.0040806
12.869	12.6428	-0.000397573	0.00320315
12.8695	12.6424	-0.000475334	0.00213298
12.87	12.6419	0.000833878	0.00279885
12.8704	12.6414	-5.86018e-05	0.00391959
12.8709	12.641	-0.00112141	0.00403029
12.8714	12.6405	-0.000282538	0.00333221
12.8719	12.64	-0.00039991	0.00214822
12.8723	12.6396	0.000711441	0.00281876
12.8728	12.6391	5.81811e-06	0.00391073
12.8733	12.6386	-0.00120703	0.00402267
12.8737	12.6382	-0.000345959	0.00316005
12.8742	12.6377	-0.000223986	0.00214388
12.8747	12.6372	0.000697102	0.00282392
12.8752	12.6367	8.71099e-05	0.00384534
12.8756	12.6363	-0.00119829	0.00399513
12.8761	12.6358	-0.000379703	0.00316906
12.8766	12.6353	-0.000216584	0.00212224
12.8771	12.6348	0.000614543	0.00280475
12.8775	12.6344	7.20393e-05	0.00392131
12.878	12.6339	-0.00116435	0.003895
12.8785	12.6334	-0.000371035	0.00304763
12.8789	12.633	-0.000207649	0.00210233
12.8794	12.6325	0.000600739	0.00271756
12.8799	12.632	0.000103518	0.00386107
12.8804	12.6316	-0.0012111	0.00390622
12.8808	12.6311	-0.000321418	0.00306615
12.8813	12.6306	-0.000112553	0.00203661
12.8818	12.6301	0.000700704	0.00280024
12.8822	12.6297	0.000119587	0.00401177
12.8827	12.6292	-0.0012129	0.003836
12.8832	12.6287	-0.000378704	0.0031907
12.8837	12.6283	-4.96665e-05	0.00210512
12.8841	12.6278	0.000520446	0.00283793
12.8846	12.6273	-4.65988e-05	0.00400989
12.8851	12.6268	-0.00136114	0.00362893
12.8856	12.6264	-0.000322684	0.00301042
12.886	12.6259	-0.000113284	0.00216584
12.8865	12.6254	0.000472167	0.00280851
12.887	12.6249	9.75791e-05	0.00394327
12.8874	12.6244	-0.00140462	0.00383085
12.8879	12.624	-0.00034216	0.00306754
12.8884	12.6235	1.5021e-05	0.00215789
12.8889	12.623	0.000517914	0.00283433
12.8893	12.6225	8.30435e-05	0.0039386
12.8898	12.6221	-0.00136321	0.00385361
12.8903	12.6216	-0.00041218	0.00300731
12.8907	12.6211	5.12973e-05	0.00219993
12.8912	12.6206	0.000463695	0.00294815
12.8917	12.6202	0.000205748	0.00408306
12.8922	12.6197	-0.00143917	0.00384722
12.8926	12.6192	-0.000252932	0.00299732
12.8931	12.6188	0.000161	0.00215371
12.8936	12.6183	0.000375002	0.00291685
12.8941	12.6178	0.000301112	0.00424621
12.8945	12.6173	-0.00137982	0.00366818
12.895	12.6169	-0.000269803	0.00297945
12.8955	12.6164	9.68478e-05	0.00216428
12.8959	12.6159	0.000379336	0.00287981
12.8964	12.6154	0.000197544	0.00424466
12.8969	12.615	-0.00147085	0.00378012
12.8974	12.6145	-0.000387907	0.00296495
12.8978	12.614	0.000205481	0.00218108
12.8983	12.6136	0.00029091	0.00279589
12.8988	12.6131	0.00015433	0.00413149
