# 1304     AichiSR QXAFS
# Start     : 8.9544
# End       : 9.0544
# Dir       : Forward
# Points    : 300
# ScanTime  : 1.01549
# Date      : 13.04.23 23:26
# Ring Cur. : 1[mA]
12.7557	12.7562	0.000185274	0.00413772
12.7562	12.7557	-0.00128986	0.00384362
12.7566	12.7553	-0.000339556	0.00298567
12.7571	12.7548	9.01775e-05	0.0023321
12.7576	12.7543	0.000494639	0.00298675
12.7581	12.7538	0.000380335	0.0042372
12.7585	12.7534	-0.00146858	0.00380019
12.759	12.7529	-0.000391973	0.00298396
12.7595	12.7524	3.49605e-05	0.00217985
12.7599	12.752	0.000418412	0.00290423
12.7604	12.7515	0.00032592	0.00420794
12.7609	12.751	-0.00151893	0.00390901
12.7614	12.7506	-0.000258799	0.00294503
12.7618	12.7501	0.000175803	0.00223106
12.7623	12.7496	0.000270168	0.00296667
12.7628	12.7492	0.000262232	0.00421589
12.7632	12.7487	-0.00145551	0.00367613
12.7637	12.7482	-0.000298946	0.00286096
12.7642	12.7478	0.000294976	0.00232153
12.7647	12.7473	0.000267635	0.00297461
12.7651	12.7468	0.000270971	0.00421089
12.7656	12.7463	-0.00141996	0.00379585
12.7661	12.7459	-0.000360494	0.00296871
12.7666	12.7454	0.00018481	0.00229006
12.767	12.7449	0.000346858	0.00311704
12.7675	12.7444	0.000179406	0.00424686
12.768	12.744	-0.00132793	0.00381125
12.7684	12.7435	-0.000305545	0.00286203
12.7689	12.743	0.000369866	0.00252237
12.7694	12.7426	0.000129789	0.00308794
12.7699	12.7421	0.000159003	0.00426522
12.7703	12.7416	-0.00151533	0.00377029
12.7708	12.7412	-0.00028894	0.00287358
12.7713	12.7407	0.000389074	0.00234005
12.7717	12.7402	6.99705e-05	0.00305541
12.7722	12.7397	0.000222085	0.00435208
12.7727	12.7393	-0.00137042	0.00376267
12.7732	12.7388	-0.000266201	0.00280196
12.7736	12.7383	0.000439422	0.00229989
12.7741	12.7379	9.81141e-05	0.00314915
12.7746	12.7374	0.000157665	0.00433979
12.7751	12.7369	-0.00129753	0.00369572
12.7755	12.7364	-0.000314748	0.00274543
12.776	12.7359	0.000565194	0.0022563
12.7765	12.7355	0.000207817	0.00312515
12.7769	12.735	2.88252e-05	0.00426259
12.7774	12.7345	-0.00121723	0.00365991
12.7779	12.734	-0.000465863	0.00264955
12.7784	12.7335	0.000587202	0.00237258
12.7788	12.7331	6.51728e-05	0.00306599
12.7793	12.7326	-8.62104e-05	0.00425465
12.7798	12.7321	-0.00122183	0.00368498
12.7802	12.7317	-0.000422114	0.00273534
12.7807	12.7312	0.000741386	0.00231948
12.7812	12.7307	8.19735e-05	0.00312359
12.7817	12.7302	-7.08723e-05	0.00417696
12.7821	12.7298	-0.00116995	0.00363377
12.7826	12.7293	-0.000447458	0.00254244
12.7831	12.7288	0.000774059	0.00242052
12.7836	12.7284	0.000179941	0.00336475
12.784	12.7279	-0.000123824	0.00424294
12.7845	12.7274	-0.00108326	0.00358083
12.785	12.727	-0.000399642	0.00257605
12.7854	12.7265	0.000811138	0.00251442
12.7859	12.726	-9.48782e-05	0.00327633
12.7864	12.7255	-0.000173905	0.00425137
12.7869	12.7251	-0.000989694	0.0035687
12.7873	12.7246	-0.0003649	0.00244903
12.7878	12.7241	0.000899832	0.00252876
12.7883	12.7236	-7.42074e-05	0.003257
12.7887	12.7232	-0.000265202	0.00421229
12.7892	12.7227	-0.000930607	0.00364123
12.7897	12.7222	-0.000459996	0.00252532
12.7902	12.7218	0.000901901	0.00247566
12.7906	12.7213	-2.94595e-05	0.00341129
12.7911	12.7208	-0.000260797	0.00436658
12.7916	12.7204	-0.000939614	0.00354068
12.7921	12.7199	-0.000542554	0.00234005
12.7925	12.7194	0.00100593	0.00258555
12.793	12.719	5.36337e-05	0.00346874
12.7935	12.7185	-0.000397841	0.00434151
12.7939	12.718	-0.000926808	0.00347668
12.7944	12.7176	-0.000525949	0.00240356
12.7949	12.7171	0.000930044	0.00256236
12.7954	12.7166	-0.000137557	0.0034857
12.7958	12.7161	-0.000452862	0.0042839
12.7963	12.7157	-0.000924739	0.00351372
12.7968	12.7152	-0.00064712	0.00226564
12.7972	12.7147	0.00107549	0.00262807
12.7977	12.7142	-7.52062e-05	0.00344243
12.7982	12.7137	-0.000557089	0.00424015
12.7987	12.7133	-0.000823508	0.00352602
12.7991	12.7128	-0.000540752	0.00221082
12.7996	12.7123	0.000977592	0.00264783
12.8001	12.7119	-6.72697e-05	0.00352011
12.8006	12.7114	-0.000581898	0.00430586
12.801	12.7109	-0.000755557	0.00345193
12.8015	12.7105	-0.000692136	0.00235046
12.802	12.71	0.00104688	0.00267773
12.8024	12.7095	-1.85092e-06	0.00360681
12.8029	12.7091	-0.00067933	0.00422147
12.8034	12.7086	-0.000616712	0.00344931
12.8039	12.7081	-0.000512876	0.00225925
12.8043	12.7076	0.00106909	0.0027464
12.8048	12.7072	-4.47975e-05	0.00353601
12.8053	12.7067	-0.000731016	0.00426227
12.8057	12.7062	-0.000634582	0.00343121
12.8062	12.7057	-0.000578099	0.00220648
12.8067	12.7052	0.00104121	0.00272256
12.8072	12.7048	3.0359e-05	0.00369776
12.8076	12.7043	-0.000804835	0.00421491
12.8081	12.7038	-0.000480934	0.00339105
12.8086	12.7033	-0.000643054	0.0021478
12.8091	12.7029	0.00102867	0.00280057
12.8095	12.7024	-1.6654e-05	0.00369711
12.81	12.7019	-0.000796167	0.00412215
12.8105	12.7015	-0.000487872	0.00330902
12.8109	12.701	-0.000462528	0.00211151
12.8114	12.7005	0.000888899	0.00272428
12.8119	12.7	8.04397e-05	0.00372579
12.8124	12.6996	-0.00104798	0.00411109
12.8128	12.6991	-0.000575763	0.00336442
12.8133	12.6987	-0.000449526	0.00213577
12.8138	12.6982	0.000890896	0.00280057
12.8142	12.6977	9.15323e-06	0.00378634
12.8147	12.6972	-0.000934477	0.0040756
12.8152	12.6968	-0.000505742	0.00332148
12.8157	12.6963	-0.000375369	0.00223622
12.8161	12.6958	0.000955584	0.00281704
12.8166	12.6953	3.26242e-05	0.00377561
12.8171	12.6949	-0.00102217	0.0040924
12.8176	12.6944	-0.000449259	0.00331321
12.818	12.6939	-0.000355893	0.00212847
12.8185	12.6934	0.000715775	0.00282875
12.819	12.693	0.000116252	0.00383928
12.8194	12.6925	-0.000979225	0.00405037
12.8199	12.6921	-0.000429052	0.00327026
12.8204	12.6916	-0.000402977	0.00210667
12.8209	12.6911	0.000747717	0.00300092
12.8213	12.6906	-1.31593e-06	0.00384894
12.8218	12.6902	-0.00118042	0.00404693
12.8223	12.6897	-0.000347493	0.00317234
12.8227	12.6892	-0.000269536	0.00214978
12.8232	12.6888	0.000684564	0.00276288
12.8237	12.6883	-1.74565e-05	0.00392754
12.8242	12.6878	-0.00117655	0.00401021
12.8246	12.6874	-0.000421918	0.00313621
12.8251	12.6869	-9.54132e-05	0.00219279
12.8256	12.6864	0.00059307	0.00291406
12.8261	12.6859	2.93602e-05	0.00396522
12.8265	12.6854	-0.00129032	0.00395089
12.827	12.685	-0.00022172	0.00312252
12.8275	12.6845	-0.000179773	0.00217936
12.8279	12.684	0.000531183	0.00291406
12.8284	12.6835	6.95067e-05	0.00405987
12.8289	12.6831	-0.0013136	0.00395916
12.8294	12.6826	-0.000342356	0.00293848
12.8298	12.6821	-9.66795e-05	0.00224615
12.8303	12.6817	0.000514043	0.00281753
12.8308	12.6812	0.000102716	0.00410937
12.8312	12.6807	-0.00131333	0.00375037
12.8317	12.6802	-0.000275939	0.00317014
12.8322	12.6798	-1.79203e-05	0.00228105
12.8327	12.6793	0.000468564	0.00289333
12.8331	12.6788	0.00019601	0.00412059
12.8336	12.6784	-0.00134914	0.00390451
12.8341	12.6779	-0.00033162	0.0030473
12.8346	12.6774	1.83561e-05	0.00222999
12.835	12.6769	0.000376268	0.00289038
12.8355	12.6764	0.000151797	0.004096
12.836	12.676	-0.00141076	0.00382478
12.8364	12.6755	-0.000305277	0.00300854
12.8369	12.675	7.81746e-05	0.00227933
12.8374	12.6745	0.000417146	0.00290767
12.8379	12.674	0.000237227	0.00421589
12.8383	12.6736	-0.00150026	0.00372686
12.8388	12.6731	-0.000357427	0.00301633
12.8393	12.6726	0.000110652	0.00220476
12.8397	12.6722	0.000349926	0.00302255
12.8402	12.6717	0.000307247	0.00429743
12.8407	12.6713	-0.00138929	0.00386591
12.8412	12.6708	-0.000217387	0.00294299
12.8416	12.6703	0.000202948	0.00231047
12.8421	12.6698	0.000315183	0.0030087
12.8426	12.6694	0.00018094	0.00431069
12.8431	12.6689	-0.00144911	0.00377528
12.8435	12.6685	-0.000226054	0.002839
12.844	12.668	0.000310315	0.00234144
12.8445	12.6675	0.000222888	0.00306271
12.8449	12.667	0.000272701	0.00430087
12.8454	12.6666	-0.00138442	0.00380159
12.8459	12.6661	-0.000379703	0.0028644
12.8464	12.6656	0.000437086	0.00219976
12.8468	12.6651	0.000193478	0.0030473
12.8473	12.6646	0.000189875	0.00433324
12.8478	12.6642	-0.00136988	0.00364917
12.8482	12.6637	-0.000249061	0.00271117
12.8487	12.6632	0.000437353	0.00237602
12.8492	12.6628	0.000174341	0.00302411
12.8497	12.6623	0.000233089	0.00432299
12.8501	12.6619	-0.00127678	0.00367768
12.8506	12.6614	-0.00031168	0.00277115
12.8511	12.6609	0.000504841	0.00230252
12.8516	12.6604	8.35073e-05	0.00317014
12.852	12.6599	0.000190143	0.00426662
12.8525	12.6595	-0.00130566	0.00366786
12.853	12.659	-0.000349026	0.00276025
12.8534	12.6586	0.000576466	0.00247968
12.8539	12.6581	0.000162802	0.00315612
12.8544	12.6576	0.000177408	0.00429464
12.8549	12.6571	-0.00120903	0.00365573
12.8553	12.6567	-0.0003761	0.00263086
12.8558	12.6562	0.000652889	0.00238504
12.8563	12.6557	3.70293e-05	0.00325872
12.8567	12.6552	0.000139259	0.00433839
12.8572	12.6547	-0.00119936	0.00367768
12.8577	12.6543	-0.000342089	0.00245772
12.8582	12.6538	0.000679962	0.00230875
12.8586	12.6533	5.92339e-05	0.00308966
12.8591	12.6529	-0.000105151	0.00436363
12.8596	12.6524	-0.00119629	0.00357632
12.8601	12.6519	-0.000501676	0.00255114
12.8605	12.6515	0.000774059	0.00252655
12.861	12.651	7.97084e-05	0.00327461
12.8615	12.6505	-0.000139162	0.00430398
12.8619	12.65	-0.00103904	0.00369186
12.8624	12.6495	-0.000393507	0.00256392
12.8629	12.6491	0.000881694	0.00248623
12.8634	12.6486	1.68223e-05	0.00328567
12.8638	12.6481	-0.00023219	0.00436642
12.8643	12.6477	-0.000952152	0.00360558
12.8648	12.6472	-0.000518815	0.00244887
12.8652	12.6467	0.000854085	0.0025141
12.8657	12.6462	1.68223e-05	0.00333844
12.8662	12.6458	-0.000263597	0.00428095
12.8667	12.6453	-0.000916607	0.00358615
12.8671	12.6448	-0.000404511	0.00244575
12.8676	12.6443	0.000924908	0.00248296
12.8681	12.6438	2.96277e-05	0.00324766
12.8686	12.6434	-0.000401978	0.00428578
12.869	12.6429	-0.000849315	0.00361213
12.8695	12.6425	-0.000462528	0.00240323
12.87	12.642	0.000984994	0.00260472
12.8704	12.6415	-5.52667e-05	0.00337253
12.8709	12.6411	-0.000490939	0.00424203
12.8714	12.6406	-0.000737615	0.0035542
12.8719	12.6401	-0.00053542	0.00225442
12.8723	12.6396	0.000864287	0.00274951
12.8728	12.6392	-6.39345e-05	0.00334328
12.8733	12.6387	-0.000540289	0.00429169
12.8737	12.6382	-0.00077036	0.00352183
12.8742	12.6378	-0.000461262	0.00236061
12.8747	12.6373	0.00111943	0.00262603
12.8752	12.6368	-6.06706e-05	0.00341875
12.8756	12.6363	-0.000484269	0.00430087
12.8761	12.6359	-0.000822242	0.00348168
12.8766	12.6354	-0.000548689	0.00223434
12.8771	12.6349	0.00104788	0.00269888
12.8775	12.6344	-3.15283e-05	0.00350659
12.878	12.634	-0.000596772	0.00442869
12.8785	12.6335	-0.000653255	0.00348726
12.8789	12.633	-0.000582165	0.00227047
12.8794	12.6326	0.00104815	0.00267789
12.8799	12.6321	-7.92726e-05	0.00371907
12.8804	12.6316	-0.000662458	0.00423376
12.8808	12.6312	-0.000602907	0.00350331
12.8813	12.6307	-0.000605707	0.00220353
12.8818	12.6302	0.00108469	0.00285146
12.8822	12.6297	-0.00014783	0.00365261
12.8827	12.6293	-0.000682665	0.00423285
12.8832	12.6288	-0.00065272	0.00344522
12.8837	12.6283	-0.000550223	0.00228335
12.8841	12.6279	0.00110283	0.00285441
12.8846	12.6274	-6.45235e-06	0.00363205
12.8851	12.6269	-0.000728412	0.00417664
12.8856	12.6264	-0.000567362	0.00336163
12.886	12.626	-0.000504476	0.00220132
12.8865	12.6255	0.00102107	0.00268052
12.887	12.625	3.44967e-05	0.00376455
12.8874	12.6245	-0.00100683	0.00407684
12.8879	12.624	-0.000616979	0.00346283
12.8884	12.6236	-0.000556626	0.00225957
12.8889	12.6231	0.000947915	0.00267789
12.8893	12.6226	-5.91368e-05	0.00372251
12.8898	12.6222	-0.000910935	0.00419704
12.8903	12.6217	-0.000509612	0.00336491
12.8907	12.6212	-0.000560959	0.0022345
12.8912	12.6207	0.00094178	0.00269765
12.8917	12.6203	-4.65104e-06	0.00379536
12.8922	12.6198	-0.000902535	0.00420434
12.8926	12.6193	-0.000513411	0.00338015
12.8931	12.6189	-0.000362296	0.00212552
12.8936	12.6184	0.000787132	0.00279901
12.8941	12.6179	-2.07916e-05	0.00378323
12.8945	12.6174	-0.00104391	0.00412091
12.895	12.617	-0.000478134	0.00323789
12.8955	12.6165	-0.000455394	0.00218575
12.8959	12.616	0.000753121	0.002726
12.8964	12.6155	7.81746e-05	0.00389393
12.8969	12.6151	-0.00106458	0.00400415
12.8974	12.6146	-0.000383305	0.00334188
12.8978	12.6141	-0.000297876	0.00218157
12.8983	12.6136	0.00067743	0.00292995
12.8988	12.6132	2.44913e-05	0.00375504
