# 1304     AichiSR QXAFS
# Start     : 8.9544
# End       : 9.0544
# Dir       : Forward
# Points    : 300
# ScanTime  : 1.01549
# Date      : 13.04.24 00:30
# Ring Cur. : 0.9[mA]
12.7557	12.7563	0.00104581	0.00257621
12.7562	12.7558	-5.34654e-05	0.00361009
12.7566	12.7553	-0.00069647	0.00412526
12.7571	12.7548	-0.000688533	0.00336802
12.7576	12.7544	-0.000645051	0.0021646
12.7581	12.7539	0.00101494	0.00264955
12.7585	12.7534	3.0359e-05	0.00341285
12.759	12.753	-0.000691333	0.00418066
12.7595	12.7525	-0.00067933	0.00340228
12.7599	12.752	-0.000610309	0.00220025
12.7604	12.7516	0.00104328	0.00268347
12.7609	12.7511	-5.31979e-05	0.00358427
12.7614	12.7506	-0.000802302	0.00402718
12.7618	12.7501	-0.000658124	0.00344071
12.7623	12.7497	-0.000534885	0.00216567
12.7628	12.7492	0.000988329	0.00269765
12.7632	12.7488	-2.69268e-05	0.00354052
12.7637	12.7483	-0.000851919	0.00411125
12.7642	12.7478	-0.000657857	0.00332738
12.7647	12.7474	-0.000639719	0.00216911
12.7651	12.7469	0.000871492	0.00276132
12.7656	12.7464	1.65548e-05	0.00368826
12.7661	12.7459	-0.000771091	0.00416123
12.7666	12.7454	-0.000532085	0.0033677
12.767	12.745	-0.000614375	0.00220599
12.7675	12.7445	0.000949984	0.00272116
12.768	12.744	-0.000270802	0.00370039
12.7684	12.7435	-0.000870325	0.00398203
12.7689	12.7431	-0.000557892	0.00328379
12.7694	12.7426	-0.000575763	0.00219214
12.7699	12.7422	0.000904237	0.00267618
12.7703	12.7417	-3.0262e-05	0.00376627
12.7708	12.7412	-0.00094648	0.00410175
12.7713	12.7407	-0.000539486	0.00326527
12.7717	12.7403	-0.000452059	0.00214093
12.7722	12.7398	0.000873293	0.00279278
12.7727	12.7393	-8.25365e-06	0.00365508
12.7732	12.7389	-0.000973357	0.0039699
12.7736	12.7384	-0.000419047	0.00339277
12.7741	12.7379	-0.000477866	0.00212724
12.7746	12.7375	0.000846951	0.00272846
12.7751	12.737	-7.29411e-05	0.0037879
12.7755	12.7365	-0.00103164	0.00387213
12.776	12.736	-0.000438255	0.00319848
12.7765	12.7355	-0.000555359	0.00211323
12.7769	12.735	0.000724246	0.00276862
12.7774	12.7346	-9.31481e-05	0.00375988
12.7779	12.7341	-0.00111827	0.00391991
12.7784	12.7336	-0.000440591	0.003158
12.7788	12.7331	-0.000439254	0.00212241
12.7793	12.7327	0.000690431	0.00270683
12.7798	12.7322	-3.65223e-06	0.00390246
12.7802	12.7317	-0.00120163	0.00384288
12.7807	12.7313	-0.000552827	0.00306303
12.7812	12.7308	-0.000422382	0.00195303
12.7817	12.7303	0.000745452	0.00280287
12.7821	12.7298	6.03039e-05	0.00383912
12.7826	12.7294	-0.00118476	0.00383337
12.7831	12.7289	-0.000391973	0.00310056
12.7836	12.7284	-0.000297145	0.00216584
12.784	12.728	0.000696834	0.00274435
12.7845	12.7275	-9.02768e-05	0.00384583
12.785	12.727	-0.00117609	0.00384207
12.7854	12.7265	-0.000411181	0.00313326
12.7859	12.7261	-0.000220454	0.00205358
12.7864	12.7256	0.000642955	0.00281721
12.7869	12.7251	-6.45235e-06	0.00399776
12.7873	12.7246	-0.00124538	0.00387509
12.7878	12.7242	-0.000390172	0.00313948
12.7883	12.7237	-0.000179309	0.00215027
12.7887	12.7232	0.000537586	0.0028163
12.7892	12.7228	0.000204482	0.00402873
12.7897	12.7223	-0.00125891	0.00397113
12.7902	12.7218	-0.00038277	0.00304623
12.7906	12.7214	-0.000117422	0.00228228
12.7911	12.7209	0.000477767	0.00286268
12.7916	12.7204	-2.20579e-05	0.00406299
12.7921	12.72	-0.00137675	0.00389377
12.7925	12.7195	-0.000270267	0.00301214
12.793	12.719	-2.02566e-05	0.00220288
12.7935	12.7186	0.000506909	0.003021
12.7939	12.7181	9.01775e-05	0.00400989
12.7944	12.7176	-0.00130366	0.00381732
12.7949	12.7172	-0.000342624	0.00313014
12.7954	12.7167	4.44308e-05	0.00218141
12.7958	12.7162	0.000301843	0.00301058
12.7963	12.7157	0.000169936	0.0041491
12.7968	12.7152	-0.00141456	0.00383584
12.7972	12.7148	-0.000329622	0.00294847
12.7977	12.7143	-1.99891e-05	0.00220025
12.7982	12.7138	0.000396208	0.00293462
12.7987	12.7133	0.000254562	0.0041083
12.7991	12.7129	-0.00140309	0.00374635
12.7996	12.7124	-0.000414445	0.00296543
12.8001	12.712	5.51675e-05	0.00230563
12.8006	12.7115	0.000367333	0.00301198
12.801	12.711	0.000201147	0.00427005
12.8015	12.7105	-0.0014187	0.00383289
12.802	12.71	-0.000424183	0.00286563
12.8024	12.7096	0.000163604	0.00224057
12.8029	12.7091	0.000312116	0.00300108
12.8034	12.7087	0.000150531	0.00428997
12.8039	12.7082	-0.00143223	0.00379896
12.8043	12.7077	-0.000243658	0.00291234
12.8048	12.7072	0.000250229	0.00235143
12.8053	12.7067	0.00028984	0.00290472
12.8057	12.7063	0.000239224	0.00423736
12.8062	12.7058	-0.00151993	0.00382371
12.8067	12.7053	-0.000361029	0.00294675
12.8072	12.7048	0.000207817	0.00235234
12.8076	12.7043	0.000301379	0.00305058
12.8081	12.7039	0.00012212	0.00421884
12.8086	12.7034	-0.00139795	0.00380691
12.8091	12.7029	-0.000362296	0.00305697
12.8095	12.7025	0.00029371	0.00221099
12.81	12.702	0.000211883	0.00308982
12.8105	12.7015	0.000232554	0.00425309
12.8109	12.701	-0.00138008	0.00373341
12.8114	12.7006	-0.000246529	0.00296183
12.8119	12.7001	0.000306516	0.00228727
12.8124	12.6996	0.00019041	0.00301182
12.8128	12.6992	0.000181207	0.0042576
12.8133	12.6987	-0.00138342	0.00376487
12.8138	12.6983	-0.000355697	0.00282499
12.8142	12.6978	0.000321051	0.00233259
12.8147	12.6973	0.000155864	0.00303796
12.8152	12.6968	0.000191676	0.00425948
12.8157	12.6964	-0.00125198	0.00367957
12.8161	12.6959	-0.000305277	0.00275525
12.8166	12.6954	0.000315647	0.00237569
12.8171	12.6949	5.44362e-05	0.00299002
12.8176	12.6944	0.000120854	0.00431832
12.818	12.694	-0.00143503	0.00365417
12.8185	12.6935	-0.000366166	0.0027945
12.819	12.693	0.00049364	0.00237848
12.8194	12.6926	0.000136192	0.00309933
12.8199	12.6921	9.81141e-05	0.00434462
12.8204	12.6917	-0.00133507	0.0037085
12.8209	12.6912	-0.000420652	0.00265873
12.8213	12.6907	0.000479568	0.00232276
12.8218	12.6902	7.43757e-05	0.00312048
12.8223	12.6898	2.60251e-05	0.00433201
12.8227	12.6893	-0.00132513	0.00370383
12.8232	12.6888	-0.000373032	0.0026715
12.8237	12.6884	0.000526314	0.00243298
12.8242	12.6879	1.57523e-05	0.00317996
12.8246	12.6874	5.64338e-05	0.00422941
12.8251	12.6869	-0.00138775	0.00356076
12.8256	12.6865	-0.000441322	0.00251254
12.8261	12.686	0.000546521	0.00233505
12.8265	12.6855	1.09545e-05	0.00320938
12.827	12.685	-0.000112285	0.00433045
12.8275	12.6845	-0.00118422	0.00356698
12.8279	12.6841	-0.000436454	0.00264611
12.8284	12.6836	0.000608141	0.00235218
12.8289	12.6831	5.64338e-05	0.00318635
12.8294	12.6827	-0.000178774	0.00422974
12.8298	12.6822	-0.00122644	0.00354256
12.8303	12.6817	-0.000467397	0.002544
12.8308	12.6813	0.000648822	0.00236947
12.8312	12.6808	-0.000124823	0.00312859
12.8317	12.6803	-0.000259531	0.0042853
12.8322	12.6798	-0.00103444	0.00362475
12.8327	12.6794	-0.000434385	0.00248451
12.8331	12.6789	0.00073138	0.00243469
12.8336	12.6784	-3.27946e-05	0.00323257
12.8341	12.678	-0.000274869	0.00431799
12.8346	12.6775	-0.00113027	0.00348602
12.835	12.677	-0.000510344	0.00247534
12.8355	12.6765	0.000768459	0.00241011
12.836	12.676	-0.000133491	0.00326683
12.8364	12.6756	-0.000347225	0.00423113
12.8369	12.6751	-0.000965688	0.00352559
12.8374	12.6746	-0.000545354	0.00245633
12.8379	12.6741	0.000772526	0.00248328
12.8383	12.6736	-4.9399e-05	0.0032329
12.8388	12.6732	-0.000374834	0.00413632
12.8393	12.6727	-0.000957021	0.00351158
12.8397	12.6722	-0.000680864	0.00235374
12.8402	12.6718	0.000867622	0.00248108
12.8407	12.6713	-0.000209717	0.00342719
12.8412	12.6708	-0.000325752	0.00416402
12.8416	12.6704	-0.000918337	0.00345489
12.8421	12.6699	-0.000548956	0.00243223
12.8426	12.6694	0.000856421	0.00250427
12.8431	12.669	-4.47975e-05	0.00329002
12.8435	12.6685	-0.00043492	0.00413632
12.844	12.668	-0.000843715	0.00349397
12.8445	12.6676	-0.000568628	0.00237865
12.8449	12.6671	0.000944116	0.00253589
12.8454	12.6666	-0.000186639	0.00337613
12.8459	12.6661	-0.000382235	0.00418566
12.8464	12.6657	-0.000803836	0.00347389
12.8468	12.6652	-0.000552024	0.00226376
12.8473	12.6647	0.000998798	0.00262496
12.8478	12.6642	-6.04031e-05	0.00346111
12.8482	12.6638	-0.000449526	0.00423532
12.8487	12.6633	-0.000908135	0.00343153
12.8492	12.6628	-0.000544355	0.00213502
12.8497	12.6624	0.000874827	0.00255302
12.8501	12.6619	-6.9071e-05	0.0034725
12.8506	12.6614	-0.000494471	0.00419344
12.8511	12.661	-0.00074375	0.00344726
12.8516	12.6605	-0.000703871	0.00224803
12.852	12.66	0.00095965	0.00277098
12.8525	12.6595	-9.59482e-05	0.00341473
12.853	12.6591	-0.000680596	0.00411592
12.8534	12.6586	-0.000747353	0.00347529
12.8539	12.6582	-0.00062051	0.00218624
12.8544	12.6577	0.000968389	0.0026584
12.8549	12.6572	-3.94648e-05	0.00346488
12.8553	12.6567	-0.000701338	0.00420311
12.8558	12.6562	-0.000819442	0.00344726
12.8563	12.6558	-0.000734815	0.00218436
12.8567	12.6553	0.00106935	0.00270576
12.8572	12.6548	-8.69417e-05	0.00351716
12.8577	12.6543	-0.000729214	0.00400538
12.8582	12.6539	-0.000708205	0.00337377
12.8586	12.6534	-0.000656323	0.00205406
12.8591	12.6529	0.000958919	0.00269781
12.8596	12.6525	-0.000100282	0.00362287
12.8601	12.652	-0.000866187	0.00397859
12.8605	12.6515	-0.000645854	0.0033808
12.861	12.651	-0.000642251	0.00206619
12.8615	12.6506	0.000960453	0.00273034
12.8619	12.6501	-1.81878e-05	0.00349118
12.8624	12.6496	-0.000794633	0.00404307
12.8629	12.6491	-0.00055436	0.00338671
12.8634	12.6487	-0.000533618	0.00215494
12.8638	12.6482	0.000941512	0.00271059
12.8643	12.6477	-0.000155232	0.00363811
12.8648	12.6473	-0.00078823	0.00414657
12.8652	12.6468	-0.000487337	0.00332926
12.8657	12.6463	-0.000495006	0.00217534
12.8662	12.6458	0.00107576	0.00270355
12.8667	12.6453	-9.56807e-05	0.00367892
12.8671	12.6449	-0.00092094	0.00410674
12.8676	12.6444	-0.000410646	0.00332336
12.8681	12.6439	-0.000613109	0.00204349
12.8686	12.6434	0.000807803	0.00270608
12.869	12.643	-3.7396e-05	0.00364048
12.8695	12.6425	-0.000986627	0.00414239
12.87	12.6421	-0.00050601	0.00340555
12.8704	12.6416	-0.000523613	0.00212536
12.8709	12.6411	0.000905967	0.00278483
12.8714	12.6406	-0.000128622	0.00374382
12.8719	12.6402	-0.00104598	0.004096
12.8723	12.6397	-0.000506741	0.00330763
12.8728	12.6392	-0.00046433	0.00225318
12.8733	12.6388	0.000784796	0.00285629
12.8737	12.6383	-0.000127891	0.00360698
12.8742	12.6378	-0.00113341	0.00410175
12.8747	12.6374	-0.000405777	0.00325781
12.8752	12.6369	-0.000469198	0.00219837
12.8756	12.6364	0.000816542	0.00276116
12.8761	12.6359	-3.6326e-05	0.00380937
12.8766	12.6355	-0.00103318	0.00401537
12.8771	12.635	-0.000456393	0.00318447
12.8775	12.6345	-0.00031835	0.00208472
12.878	12.634	0.000805734	0.00280507
12.8785	12.6336	-1.07863e-05	0.00374865
12.8789	12.6331	-0.00108146	0.00403357
12.8794	12.6326	-0.000468396	0.00314399
12.8799	12.6322	-0.00031168	0.00213937
12.8804	12.6317	0.000608408	0.00277533
12.8808	12.6312	-1.28551e-05	0.00385845
12.8813	12.6307	-0.0012139	0.00400259
12.8818	12.6303	-0.000340359	0.00307876
12.8822	12.6298	-0.000372569	0.00216272
12.8827	12.6293	0.000656224	0.00282204
12.8832	12.6289	8.76449e-05	0.00398825
12.8837	12.6284	-0.00113847	0.00382822
12.8841	12.6279	-0.000336756	0.00311924
12.8846	12.6275	-0.00028894	0.00219681
12.8851	12.627	0.000657758	0.00280991
12.8856	12.6265	6.23727e-05	0.00392475
12.886	12.626	-0.00128165	0.00388706
12.8865	12.6255	-0.000194576	0.00317341
12.887	12.6251	-0.000177436	0.00217657
12.8874	12.6246	0.000482904	0.00287621
12.8879	12.6241	-3.17116e-07	0.00396351
12.8884	12.6236	-0.00128392	0.00388427
12.8889	12.6232	-0.000358961	0.00316423
12.8893	12.6227	-4.8864e-05	0.00217985
12.8898	12.6222	0.000573398	0.00283089
12.8903	12.6218	5.49e-05	0.0040071
12.8907	12.6213	-0.0013162	0.00392491
12.8912	12.6208	-0.000240857	0.00298863
12.8917	12.6203	-4.60638e-05	0.00210012
12.8922	12.6198	0.000443756	0.00285613
12.8926	12.6194	0.00012879	0.004018
12.8931	12.6189	-0.00142383	0.0038986
12.8936	12.6185	-0.000303744	0.00302615
12.8941	12.618	-5.34654e-05	0.00212069
12.8945	12.6175	0.000521445	0.00285752
12.895	12.617	0.000128255	0.00407576
12.8955	12.6166	-0.00150686	0.00381421
12.8959	12.6161	-0.000274601	0.00308016
12.8964	12.6156	-9.18106e-05	0.00212847
12.8969	12.6151	0.000401344	0.00289537
12.8974	12.6147	0.000108583	0.00403013
12.8978	12.6142	-0.00152506	0.0038083
12.8983	12.6137	-0.000388103	0.00291062
12.8988	12.6132	2.17883e-07	0.00211274
