# 1304     AichiSR QXAFS
# Start     : 8.9544
# End       : 9.0544
# Dir       : Forward
# Points    : 300
# ScanTime  : 1.01549
# Date      : 13.04.24 00:36
# Ring Cur. : 0.9[mA]
12.7557	12.7562	-0.000325484	0.00299109
12.7562	12.7558	-0.000178506	0.00222779
12.7566	12.7553	0.000559326	0.00283949
12.7571	12.7548	-4.38354e-06	0.00399931
12.7576	12.7543	-0.00125504	0.00390311
12.7581	12.7539	-0.000320883	0.00300543
12.7585	12.7534	-0.000236256	0.00222656
12.759	12.7529	0.000533519	0.0027727
12.7595	12.7525	0.000168669	0.00411469
12.7599	12.752	-0.00126145	0.00383182
12.7604	12.7515	-0.000467861	0.00306131
12.7609	12.7511	-0.000115353	0.00217239
12.7614	12.7506	0.000456829	0.00284383
12.7618	12.7501	6.13027e-05	0.00402283
12.7623	12.7497	-0.00146291	0.00388303
12.7628	12.7492	-0.000345959	0.00309605
12.7632	12.7487	-9.72145e-05	0.00211618
12.7637	12.7483	0.000353261	0.00287137
12.7642	12.7478	0.000118785	0.00404635
12.7647	12.7473	-0.0014501	0.0037661
12.7651	12.7468	-0.000371302	0.00304172
12.7656	12.7464	-1.87228e-05	0.00220787
12.7661	12.7459	0.000316717	0.00280368
12.7666	12.7454	4.51621e-05	0.00415903
12.767	12.7449	-0.00147111	0.00374291
12.7675	12.7445	-0.000388905	0.00294987
12.768	12.744	3.11615e-05	0.00209717
12.7684	12.7435	0.000294441	0.00296994
12.7689	12.743	0.00012319	0.0040443
12.7694	12.7426	-0.00147211	0.00377807
12.7699	12.7421	-0.000390172	0.00294831
12.7703	12.7417	7.91734e-05	0.00228711
12.7708	12.7412	0.000246162	0.00296355
12.7713	12.7407	0.000204749	0.00421057
12.7717	12.7402	-0.00149332	0.00386558
12.7722	12.7398	-0.000325484	0.00287809
12.7727	12.7393	0.000200415	0.00219574
12.7732	12.7388	0.000341722	0.00297789
12.7736	12.7384	0.000217751	0.00423376
12.7741	12.7379	-0.00139902	0.00375676
12.7746	12.7374	-0.000300212	0.00292168
12.7751	12.7369	0.000245627	0.00222049
12.7755	12.7365	0.000186076	0.00291996
12.776	12.736	0.000196813	0.00425867
12.7765	12.7355	-0.00146624	0.00370071
12.7769	12.735	-0.000263401	0.00288136
12.7774	12.7345	0.0002587	0.00232292
12.7779	12.7341	8.48448e-05	0.00306303
12.7784	12.7336	8.58436e-05	0.00421073
12.7788	12.7331	-0.00143864	0.00367859
12.7793	12.7326	-0.00035336	0.00279745
12.7798	12.7322	0.000247161	0.00233087
12.7802	12.7317	0.000155132	0.00290472
12.7807	12.7312	0.000196278	0.00431644
12.7812	12.7308	-0.00145344	0.00363532
12.7817	12.7303	-0.000378169	0.00284072
12.7821	12.7298	0.000398009	0.00220164
12.7826	12.7293	0.000123654	0.00310196
12.7831	12.7289	0.000167403	0.00420917
12.7836	12.7284	-0.00133407	0.00369604
12.784	12.7279	-0.000433653	0.00269142
12.7845	12.7275	0.000379603	0.00228228
12.785	12.727	5.0566e-05	0.00305385
12.7854	12.7265	0.000194744	0.00415747
12.7859	12.726	-0.00139136	0.0037012
12.7864	12.7256	-0.00033549	0.00269346
12.7869	12.7251	0.000393675	0.00237011
12.7873	12.7246	0.000108316	0.00313449
12.7878	12.7241	2.11562e-05	0.00426227
12.7883	12.7237	-0.00117762	0.00357477
12.7887	12.7232	-0.000360762	0.0026343
12.7892	12.7227	0.000424084	0.00234144
12.7897	12.7223	4.28431e-06	0.00322635
12.7902	12.7218	6.05002e-05	0.00419205
12.7906	12.7214	-0.00114748	0.00362255
12.7911	12.7209	-0.000427251	0.0025717
12.7916	12.7204	0.000537586	0.00234144
12.7921	12.7199	-3.38473e-06	0.00313358
12.7925	12.7195	4.55181e-06	0.00421089
12.793	12.719	-0.00127038	0.00349848
12.7935	12.7185	-0.000393507	0.00256859
12.7939	12.7181	0.000651622	0.00246149
12.7944	12.7176	4.79622e-05	0.00307984
12.7949	12.7171	-0.000112018	0.0043275
12.7954	12.7167	-0.00115741	0.00364327
12.7958	12.7162	-0.000341625	0.00253589
12.7963	12.7157	0.000815008	0.00250492
12.7968	12.7152	1.40222e-05	0.0031113
12.7972	12.7147	-0.000115085	0.00431193
12.7977	12.7143	-0.00125171	0.00359377
12.7982	12.7138	-0.000487337	0.00253745
12.7987	12.7133	0.000663625	0.00234316
12.7991	12.7128	-8.4409e-05	0.00327461
12.7996	12.7124	-0.000229657	0.00424777
12.8001	12.7119	-0.000967757	0.00360886
12.8006	12.7115	-0.000455127	0.00237757
12.801	12.711	0.00078353	0.00259849
12.8015	12.7105	-6.91616e-06	0.00326715
12.802	12.71	-0.000236524	0.0043334
12.8024	12.7096	-0.00100097	0.0036014
12.8029	12.7091	-0.000491938	0.00253761
12.8034	12.7086	0.000752854	0.00238208
12.8039	12.7082	-6.93385e-05	0.00332738
12.8043	12.7077	-0.000378436	0.00430398
12.8048	12.7072	-0.000994028	0.00356838
12.8053	12.7067	-0.000517478	0.00248484
12.8057	12.7062	0.000826209	0.00245977
12.8062	12.7058	-0.000175171	0.00332115
12.8067	12.7053	-0.000333688	0.00423843
12.8072	12.7048	-0.000947015	0.00353724
12.8076	12.7043	-0.000643785	0.00240823
12.8081	12.7038	0.00081854	0.00254883
12.8086	12.7034	-2.76582e-05	0.00339589
12.8091	12.7029	-0.000574764	0.00427038
12.8095	12.7024	-0.000728679	0.0034099
12.81	12.702	-0.00057323	0.00230424
12.8105	12.7015	0.00100593	0.00271633
12.8109	12.701	-5.63367e-05	0.00333238
12.8114	12.7005	-0.000397841	0.00413288
12.8119	12.7001	-0.000846515	0.00344447
12.8124	12.6996	-0.000582968	0.00223311
12.8128	12.6991	0.000936179	0.00275509
12.8133	12.6987	-3.17116e-07	0.00343325
12.8138	12.6982	-0.000728947	0.00420499
12.8142	12.6978	-0.000922474	0.00345849
12.8147	12.6973	-0.000548956	0.00221394
12.8152	12.6968	0.000933308	0.00270699
12.8157	12.6963	-5.73355e-05	0.00350143
12.8161	12.6958	-0.000622044	0.00418442
12.8166	12.6954	-0.000775693	0.00358427
12.8171	12.6949	-0.000671661	0.00228384
12.8176	12.6944	0.000926976	0.00263988
12.818	12.6939	-0.000151362	0.00339777
12.8185	12.6935	-0.000591368	0.00423564
12.819	12.693	-0.000691601	0.00348463
12.8194	12.6925	-0.000654789	0.00218108
12.8199	12.6921	0.00095125	0.00282998
12.8204	12.6916	-0.000115353	0.00350831
12.8209	12.6912	-0.000691601	0.00417041
12.8213	12.6907	-0.000728947	0.00343448
12.8218	12.6902	-0.00066319	0.00221254
12.8223	12.6897	0.00104201	0.00264209
12.8227	12.6893	-0.000137557	0.0035279
12.8232	12.6888	-0.000855254	0.00418614
12.8237	12.6883	-0.000656323	0.00342063
12.8242	12.6879	-0.000685465	0.00221222
12.8246	12.6874	0.000974257	0.0026634
12.8251	12.6869	-3.89298e-05	0.00357681
12.8256	12.6864	-0.000879528	0.00412591
12.8261	12.686	-0.000609042	0.00339138
12.8265	12.6855	-0.000592634	0.00222205
12.827	12.685	0.000950982	0.00271477
12.8275	12.6845	-0.000110484	0.00369153
12.8279	12.684	-0.000814038	0.00405257
12.8284	12.6836	-0.000582165	0.00333549
12.8289	12.6831	-0.000536954	0.00214404
12.8294	12.6826	0.000856154	0.00269937
12.8298	12.6822	-7.21386e-05	0.00375086
12.8303	12.6817	-0.000923009	0.00412199
12.8308	12.6812	-0.000513946	0.00338762
12.8312	12.6807	-0.00059984	0.00223106
12.8317	12.6803	0.000826476	0.00267429
12.8322	12.6798	-8.9278e-05	0.00371054
12.8327	12.6793	-0.000843983	0.00408355
12.8331	12.6789	-0.000502675	0.00334623
12.8336	12.6784	-0.000447458	0.00223762
12.8341	12.6779	0.000910836	0.0027523
12.8346	12.6775	-7.674e-05	0.00369776
12.835	12.677	-0.00103498	0.00404865
12.8355	12.6765	-0.000611575	0.00326027
12.836	12.676	-0.000384304	0.0021311
12.8364	12.6755	0.000673363	0.00275214
12.8369	12.675	-2.76582e-05	0.00382789
12.8374	12.6746	-0.00110707	0.00395556
12.8379	12.6741	-0.000549955	0.00323364
12.8383	12.6736	-0.000366166	0.00205234
12.8388	12.6731	0.000765659	0.00266962
12.8393	12.6727	5.67013e-05	0.00388738
12.8397	12.6722	-0.00119036	0.00400898
12.8402	12.6718	-0.000431852	0.00314571
12.8407	12.6713	-0.000437987	0.00214748
12.8412	12.6708	0.00071631	0.00285178
12.8416	12.6703	2.98952e-05	0.00377888
12.8421	12.6699	-0.00126298	0.00399588
12.8426	12.6694	-0.000360031	0.00325297
12.8431	12.669	-0.000387372	0.00201358
12.8435	12.6685	0.000561128	0.0027042
12.844	12.668	-5.09328e-05	0.00375676
12.8445	12.6675	-0.00117149	0.00399572
12.8449	12.6671	-0.000386105	0.00312252
12.8454	12.6666	-0.00021785	0.00222377
12.8459	12.6661	0.00063088	0.00283793
12.8464	12.6656	0.000102716	0.00406127
12.8468	12.6652	-0.00134327	0.00397333
12.8473	12.6647	-0.000406045	0.00308515
12.8478	12.6642	-0.00017057	0.00216616
12.8482	12.6637	0.000586204	0.00276803
12.8487	12.6633	7.0773e-05	0.00395621
12.8492	12.6628	-0.00130259	0.00393392
12.8497	12.6623	-0.000350828	0.0030305
12.8501	12.6619	-0.000183643	0.00217641
12.8506	12.6614	0.000542455	0.00295249
12.8511	12.6609	8.43098e-05	0.00399497
12.8516	12.6605	-0.00148185	0.0039168
12.852	12.66	-0.00034776	0.00288898
12.8525	12.6595	-0.000126089	0.00227482
12.853	12.6591	0.000581067	0.00293134
12.8534	12.6586	3.5228e-05	0.00402734
12.8539	12.6581	-0.00139696	0.0038542
12.8544	12.6577	-0.000318083	0.00307753
12.8549	12.6572	-1.89903e-05	0.00219123
12.8553	12.6567	0.000406142	0.00288947
12.8558	12.6562	8.45773e-05	0.00415468
12.8563	12.6557	-0.00148745	0.0038877
12.8567	12.6553	-0.000385838	0.00306115
12.8572	12.6548	9.88454e-06	0.00228727
12.8577	12.6543	0.000365264	0.00290037
12.8582	12.6538	0.000199613	0.00417353
12.8586	12.6534	-0.00155647	0.00378839
12.8591	12.6529	-0.000285873	0.00308139
12.8596	12.6524	4.13632e-05	0.00220943
12.8601	12.652	0.000364265	0.00294348
12.8605	12.6515	0.000179406	0.00415377
12.861	12.651	-0.00145064	0.0036386
12.8615	12.6505	-0.000314284	0.00295937
12.8619	12.65	7.94409e-05	0.00223106
12.8624	12.6496	0.000364729	0.00295437
12.8629	12.6491	3.85631e-05	0.00414738
12.8634	12.6487	-0.00151686	0.00374742
12.8638	12.6482	-0.000413179	0.00287825
12.8643	12.6477	0.000157665	0.00229785
12.8648	12.6472	0.000373736	0.00298396
12.8652	12.6467	0.000212882	0.00417927
12.8657	12.6463	-0.00137728	0.00374415
12.8662	12.6458	-0.000332155	0.00290579
12.8667	12.6453	0.000263034	0.00223171
12.8671	12.6448	0.000131858	0.00295888
12.8676	12.6443	0.00024816	0.00427784
12.8681	12.6439	-0.00142096	0.00371612
12.8686	12.6434	-0.000308612	0.00284056
12.869	12.643	0.00022542	0.00236463
12.8695	12.6425	0.000201414	0.00304935
12.87	12.642	0.000207014	0.00424654
12.8704	12.6416	-0.00136448	0.00365385
12.8709	12.6411	-0.000339092	0.0028127
12.8714	12.6406	0.000249426	0.00229752
12.8719	12.6401	9.81141e-05	0.00309073
12.8723	12.6397	9.35127e-05	0.00432766
12.8728	12.6392	-0.00135374	0.00361246
12.8733	12.6387	-0.00034776	0.00269781
12.8737	12.6383	0.000291641	0.00232759
12.8742	12.6378	0.000162802	0.00300231
12.8747	12.6373	4.2897e-05	0.00430726
12.8752	12.6369	-0.00138008	0.00358411
12.8756	12.6364	-0.00037997	0.00276722
12.8761	12.6359	0.000442222	0.00225614
12.8766	12.6354	0.00012599	0.00305402
12.8771	12.635	0.000133392	0.004278
12.8775	12.6345	-0.00135861	0.00359329
12.878	12.634	-0.000459461	0.00272739
12.8785	12.6335	0.000323584	0.00230563
12.8789	12.6331	2.60251e-05	0.00301493
12.8794	12.6326	8.12422e-05	0.00415484
12.8799	12.6321	-0.00149178	0.00364123
12.8804	12.6317	-0.000424451	0.0025731
12.8808	12.6312	0.00039594	0.00229801
12.8813	12.6307	5.20998e-05	0.00306803
12.8818	12.6302	3.34267e-05	0.00425293
12.8822	12.6298	-0.00124818	0.00355608
12.8827	12.6293	-0.000451792	0.00259382
12.8832	12.6289	0.000579266	0.00229957
12.8837	12.6284	-2.02566e-05	0.00309433
12.8841	12.6279	-7.36724e-05	0.00416467
12.8846	12.6274	-0.0012147	0.0036277
12.8851	12.627	-0.000414249	0.00261825
12.8856	12.6265	0.000604609	0.00238675
12.886	12.626	7.87096e-05	0.00320192
12.8865	12.6255	-0.000177508	0.0043152
12.887	12.625	-0.0012175	0.00344104
12.8874	12.6246	-0.000429319	0.00254679
12.8879	12.6241	0.000628348	0.00233538
12.8884	12.6236	-7.54737e-05	0.00325716
12.8889	12.6231	-0.000150095	0.00425867
12.8893	12.6227	-0.00119369	0.00357649
12.8898	12.6222	-0.000537685	0.00250025
12.8903	12.6217	0.000711441	0.00244731
12.8907	12.6213	-1.43889e-05	0.00322946
12.8912	12.6208	-0.000272336	0.00428047
12.8917	12.6203	-0.00103904	0.0036663
12.8922	12.6198	-0.000453325	0.00242084
12.8926	12.6194	0.000810603	0.00249729
12.8931	12.6189	-4.14624e-05	0.00317685
12.8936	12.6184	-0.000192311	0.00422802
12.8941	12.618	-0.00100223	0.00356559
12.8945	12.6175	-0.000541822	0.00242756
12.895	12.617	0.000763323	0.0024814
12.8955	12.6165	3.98294e-05	0.00322839
12.8959	12.6161	-0.000351095	0.00436969
12.8964	12.6156	-0.00107432	0.00355469
12.8969	12.6151	-0.000519547	0.00242863
12.8974	12.6146	0.000946916	0.00247566
12.8978	12.6142	-3.71285e-05	0.00334934
12.8983	12.6137	-0.000435455	0.00418394
12.8988	12.6132	-0.00101324	0.00355109
