# 1304     AichiSR QXAFS
# Start     : 8.9544
# End       : 9.0544
# Dir       : Backward
# Points    : 300
# ScanTime  : 1.01549
# Date      : 13.04.23 23:58
# Ring Cur. : 1[mA]
12.7557	12.6124	0.00056366	0.0023634
12.7562	12.6129	0.000176873	0.00309261
12.7566	12.6133	7.43045e-05	0.00430366
12.7571	12.6138	-0.001128	0.00364295
12.7576	12.6143	-0.000345228	0.00270388
12.7581	12.6147	0.000659755	0.00234128
12.7585	12.6152	4.00969e-05	0.00320315
12.759	12.6157	-3.29909e-05	0.00424621
12.7595	12.6162	-0.00124844	0.00355764
12.7599	12.6166	-0.000411913	0.00270855
12.7604	12.6171	0.00062808	0.00243174
12.7609	12.6176	8.55761e-05	0.00319209
12.7614	12.6181	7.63733e-05	0.00431627
12.7618	12.6185	-0.00119703	0.0036095
12.7623	12.619	-0.000459728	0.00264536
12.7628	12.6195	0.000627081	0.00252516
12.7632	12.6199	7.81746e-05	0.00316611
12.7637	12.6204	-5.64985e-06	0.00425636
12.7642	12.6209	-0.00118936	0.00364123
12.7647	12.6214	-0.00043492	0.00275386
12.7651	12.6219	0.000779927	0.00247845
12.7656	12.6223	1.19533e-05	0.00323257
12.7661	12.6228	-2.09879e-05	0.00427644
12.7666	12.6232	-0.000927611	0.00343669
12.767	12.6237	-0.000407579	0.0024909
12.7675	12.6242	0.00066416	0.00250057
12.768	12.6247	-5.72104e-06	0.00322028
12.7684	12.6251	-9.97471e-05	0.00407405
12.7689	12.6256	-0.000969023	0.00364032
12.7694	12.6261	-0.000422917	0.00241027
12.7699	12.6266	0.000824943	0.00251984
12.7703	12.6271	-2.9192e-05	0.00334558
12.7708	12.6275	-0.000193113	0.00421868
12.7713	12.628	-0.00094368	0.00354814
12.7717	12.6285	-0.000311948	0.00242272
12.7722	12.6289	0.000855619	0.00260268
12.7727	12.6294	5.33662e-05	0.00324503
12.7732	12.6299	-0.000183108	0.00417164
12.7736	12.6303	-0.000994296	0.00361229
12.7741	12.6308	-0.000427518	0.00250959
12.7746	12.6313	0.000858954	0.00256531
12.7751	12.6318	5.33662e-05	0.00343186
12.7755	12.6322	-0.000293809	0.00424391
12.776	12.6327	-0.000825844	0.00363253
12.7765	12.6332	-0.000384572	0.0024537
12.7769	12.6336	0.00098066	0.00266995
12.7774	12.6341	-8.52115e-06	0.00337474
12.7779	12.6346	-0.000195913	0.00418115
12.7784	12.6351	-0.000979225	0.003458
12.7788	12.6355	-0.000440056	0.00238783
12.7793	12.636	0.000997264	0.00261513
12.7798	12.6365	-1.0055e-05	0.00340834
12.7802	12.637	-0.000307346	0.00436331
12.7807	12.6374	-0.000801036	0.00354502
12.7812	12.6379	-0.000426716	0.00230268
12.7817	12.6384	0.000961184	0.00270683
12.7821	12.6388	2.44913e-05	0.00339433
12.7826	12.6393	-0.000478669	0.00424605
12.7831	12.6398	-0.000682933	0.00347701
12.7836	12.6402	-0.000537952	0.00234751
12.784	12.6407	0.000996997	0.00268347
12.7845	12.6412	4.59646e-05	0.00354084
12.785	12.6417	-0.000548956	0.00404554
12.7854	12.6421	-0.000619244	0.00358411
12.7859	12.6426	-0.000445389	0.00221394
12.7864	12.643	0.00102207	0.0027101
12.7869	12.6435	-8.78865e-06	0.00350954
12.7873	12.644	-0.00051441	0.00414583
12.7878	12.6444	-0.000636919	0.00359517
12.7883	12.6449	-0.000511878	0.00226515
12.7887	12.6454	0.00113458	0.00267618
12.7892	12.6459	-2.58223e-06	0.00354035
12.7897	12.6464	-0.000574764	0.00426399
12.7902	12.6468	-0.000733013	0.00353429
12.7906	12.6473	-0.000533886	0.00226236
12.7911	12.6478	0.000983995	0.00276599
12.7916	12.6483	1.04195e-05	0.00354314
12.7921	12.6487	-0.000612574	0.0041746
12.7925	12.6492	-0.000621848	0.00350331
12.793	12.6497	-0.000696202	0.00225039
12.7935	12.6502	0.000946648	0.00259505
12.7939	12.6506	3.95619e-05	0.00352323
12.7944	12.6511	-0.000707937	0.00421835
12.7949	12.6516	-0.000650455	0.00344759
12.7954	12.6521	-0.0005855	0.00213733
12.7958	12.6525	0.00104401	0.00270232
12.7963	12.653	-9.05443e-05	0.00362598
12.7968	12.6535	-0.000724346	0.00416279
12.7972	12.6539	-0.000559961	0.00335262
12.7977	12.6544	-0.000535152	0.00229006
12.7982	12.6549	0.000961452	0.00277549
12.7987	12.6554	-8.28752e-05	0.00366867
12.7991	12.6558	-0.000725077	0.00418287
12.7996	12.6563	-0.00056763	0.00337844
12.8001	12.6568	-0.000537489	0.0021442
12.8006	12.6573	0.000978858	0.00281941
12.801	12.6577	-8.98496e-06	0.00360419
12.8015	12.6582	-0.000793099	0.00416311
12.802	12.6587	-0.000597236	0.00342375
12.8024	12.6591	-0.000405777	0.00212879
12.8029	12.6596	0.00103074	0.00275837
12.8034	12.6601	2.11562e-05	0.00373373
12.8039	12.6606	-0.00084705	0.00417369
12.8043	12.661	-0.000485268	0.00331509
12.8048	12.6615	-0.000572499	0.0021842
12.8053	12.662	0.000948182	0.00280524
12.8057	12.6624	3.67618e-05	0.0037194
12.8062	12.6629	-0.00101784	0.0041033
12.8067	12.6634	-0.000484537	0.00328551
12.8072	12.6638	-0.00046993	0.00222918
12.8076	12.6643	0.000997264	0.00295094
12.8081	12.6648	1.75169e-06	0.00379536
12.8086	12.6653	-0.000943145	0.00408494
12.8091	12.6657	-0.000338557	0.00336679
12.8095	12.6662	-0.000430318	0.00224073
12.81	12.6667	0.000980392	0.00294659
12.8105	12.6672	9.68823e-06	0.00375955
12.8109	12.6676	-0.000944946	0.00407184
12.8114	12.6681	-0.00034216	0.00327477
12.8119	12.6686	-0.00038837	0.00225098
12.8124	12.669	0.00073138	0.00289833
12.8128	12.6695	9.71153e-05	0.00392458
12.8133	12.67	-0.000983024	0.00410797
12.8138	12.6704	-0.000331887	0.0032075
12.8142	12.6709	-0.000261867	0.00226564
12.8147	12.6714	0.000805003	0.00297569
12.8152	12.6719	0.000113987	0.00395728
12.8157	12.6723	-0.00108559	0.00397784
12.8161	12.6728	-0.000495006	0.00313309
12.8166	12.6732	-0.000265666	0.00211462
12.8171	12.6737	0.000698172	0.00278918
12.8176	12.6742	6.99705e-05	0.00384379
12.818	12.6747	-0.0011196	0.00397752
12.8185	12.6751	-0.000403976	0.00328723
12.819	12.6756	-0.000272604	0.00220132
12.8194	12.6761	0.000696638	0.00292184
12.8199	12.6766	3.98294e-05	0.0038964
12.8204	12.6771	-0.00115948	0.00409069
12.8209	12.6776	-0.000297608	0.00317513
12.8213	12.678	-0.000249329	0.00215805
12.8218	12.6785	0.000568529	0.00282171
12.8223	12.679	4.90322e-05	0.00394654
12.8227	12.6794	-0.00112107	0.00399652
12.8232	12.6799	-0.000427786	0.00318415
12.8237	12.6804	-0.000119954	0.00221099
12.8242	12.6808	0.000664624	0.00298707
12.8246	12.6813	0.000107317	0.00403529
12.8251	12.6818	-0.00129699	0.00389098
12.8256	12.6823	-0.000376635	0.0031376
12.8261	12.6827	-5.16641e-05	0.00228851
12.8265	12.6832	0.000536052	0.00272551
12.827	12.6837	0.000106318	0.00402267
12.8275	12.6841	-0.00127452	0.00385157
12.8279	12.6846	-0.000266468	0.00308794
12.8284	12.6851	-1.87228e-05	0.00211962
12.8289	12.6856	0.000523514	0.00285473
12.8294	12.6861	0.000106318	0.00401521
12.8298	12.6865	-0.00136375	0.00386182
12.8303	12.687	-0.000240394	0.00301853
12.8308	12.6875	-3.30621e-05	0.00200736
12.8312	12.688	0.000413882	0.00296479
12.8317	12.6884	8.79124e-05	0.00404184
12.8322	12.6889	-0.00109653	0.0037661
12.8327	12.6894	-0.000360031	0.00302755
12.8331	12.6898	1.34872e-05	0.00226424
12.8336	12.6903	0.000439422	0.00289022
12.8341	12.6908	0.000214951	0.00410797
12.8346	12.6912	-0.00133254	0.00371145
12.835	12.6917	-0.000184374	0.00311269
12.8355	12.6922	0.000105516	0.00215666
12.836	12.6926	0.000375537	0.00293553
12.8364	12.6931	0.000200344	0.00410953
12.8369	12.6936	-0.00135888	0.00384551
12.8374	12.694	-0.0003733	0.00299018
12.8379	12.6945	0.000272968	0.00234939
12.8383	12.695	0.00032592	0.00294364
12.8388	12.6955	0.000165869	0.0041782
12.8393	12.6959	-0.00135581	0.00378618
12.8397	12.6964	-0.000411913	0.00288308
12.8402	12.6969	0.000228488	0.00223541
12.8407	12.6974	0.0002615	0.00295126
12.8412	12.6978	0.000188609	0.00411436
12.8416	12.6983	-0.00149539	0.00380191
12.8421	12.6988	-0.000328284	0.00289849
12.8426	12.6992	0.000206818	0.00227138
12.8431	12.6997	0.000321783	0.00282671
12.8435	12.7002	0.000210617	0.00416451
12.844	12.7006	-0.00129239	0.00368703
12.8445	12.7011	-0.000358497	0.0029016
12.8449	12.7016	0.000256364	0.00222344
12.8454	12.7021	0.000292176	0.00289833
12.8459	12.7025	0.000163337	0.00412993
12.8464	12.703	-0.00147671	0.003758
12.8468	12.7035	-0.000417049	0.00288152
12.8473	12.7039	0.000272701	0.00219869
12.8478	12.7044	0.000264033	0.00300994
12.8482	12.7049	0.00034199	0.00422957
12.8487	12.7054	-0.0015146	0.00365261
12.8492	12.7059	-0.000346958	0.0028776
12.8497	12.7063	0.00039594	0.00224041
12.8501	12.7068	8.3846e-05	0.00286407
12.8506	12.7073	0.000223619	0.00420917
12.8511	12.7078	-0.0013264	0.00364794
12.8516	12.7083	-0.000326019	0.00281581
12.852	12.7087	0.00044249	0.002284
12.8525	12.7092	8.43098e-05	0.00300919
12.853	12.7096	0.000227489	0.00422974
12.8534	12.7101	-0.00133334	0.00362459
12.8539	12.7106	-0.000265131	0.00282
12.8544	12.7111	0.000470829	0.00226499
12.8549	12.7116	0.000249961	0.00317202
12.8553	12.712	0.000231555	0.00416139
12.8558	12.7125	-0.00130286	0.00363393
12.8563	12.7129	-0.000447458	0.00268396
12.8567	12.7134	0.000496904	0.00247034
12.8572	12.7139	6.3104e-05	0.00313572
12.8577	12.7144	0.00011932	0.00439272
12.8582	12.7148	-0.00131133	0.00365294
12.8586	12.7153	-0.00031555	0.00270887
12.8591	12.7158	0.00053145	0.00228556
12.8596	12.7163	3.36942e-05	0.00304779
12.8601	12.7167	0.000175874	0.00430291
12.8605	12.7172	-0.00117529	0.00366974
12.861	12.7177	-0.000282805	0.00264643
12.8615	12.7182	0.000627081	0.00221721
12.8619	12.7186	0.000118054	0.00311785
12.8624	12.7191	4.83009e-05	0.00426694
12.8629	12.7196	-0.00116121	0.00358255
12.8634	12.72	-0.00034216	0.00272256
12.8638	12.7205	0.000664428	0.00241199
12.8643	12.721	8.71099e-05	0.00308982
12.8648	12.7215	7.41082e-05	0.00433684
12.8652	12.7219	-0.00109859	0.00352028
12.8657	12.7224	-0.000342089	0.00253713
12.8662	12.7228	0.000691234	0.00232104
12.8667	12.7233	0.000106782	0.0031703
12.8671	12.7238	7.08442e-06	0.0042576
12.8676	12.7242	-0.00110346	0.00356559
12.8681	12.7247	-0.000465863	0.00254835
12.8686	12.7252	0.000655421	0.00234037
12.869	12.7257	7.5107e-05	0.00328878
12.8695	12.7261	-0.000111483	0.00422442
12.87	12.7266	-0.00103391	0.00374742
12.8704	12.7271	-0.000282538	0.00241617
12.8709	12.7276	0.0006897	0.00256456
12.8714	12.728	4.49658e-05	0.00326871
12.8719	12.7285	-0.000100817	0.00436035
12.8723	12.729	-0.00106458	0.00364966
12.8728	12.7294	-0.000471267	0.00252687
12.8733	12.7299	0.000796335	0.00253294
12.8737	12.7304	-2.9192e-05	0.00328518
12.8742	12.7309	-0.000171105	0.00435208
12.8747	12.7314	-0.000892262	0.00358674
12.8752	12.7318	-0.000450793	0.00249139
12.8756	12.7323	0.000973722	0.00255023
12.8761	12.7327	5.15648e-05	0.00336147
12.8766	12.7332	-0.000173905	0.00427612
12.8771	12.7337	-0.00100937	0.0035469
12.8775	12.7342	-0.000420848	0.00239733
12.878	12.7346	0.000858954	0.00261964
12.8785	12.7351	3.5763e-05	0.0032402
12.8789	12.7356	-0.000293274	0.00423113
12.8794	12.7361	-0.000884397	0.00353413
12.8799	12.7366	-0.000493739	0.00244264
12.8804	12.737	0.000823141	0.00253106
12.8808	12.7375	3.95619e-05	0.00338499
12.8813	12.738	-0.000416514	0.00422581
12.8818	12.7385	-0.000870325	0.00345865
12.8822	12.7389	-0.000517745	0.0023357
12.8827	12.7394	0.000926174	0.00250475
12.8832	12.7399	-6.14019e-05	0.00339465
12.8837	12.7403	-0.000379168	0.00415656
12.8841	12.7408	-0.000809436	0.00353117
12.8846	12.7413	-0.000402442	0.00222188
12.8851	12.7418	0.00108469	0.00274607
12.8856	12.7422	0.000127256	0.00339621
12.886	12.7427	-0.000364097	0.00428857
12.8865	12.7432	-0.000806636	0.0034412
12.887	12.7436	-0.000462796	0.00230907
12.8874	12.7441	0.00109516	0.00253745
12.8879	12.7446	-8.77442e-05	0.00337318
12.8884	12.7451	-0.000627912	0.00423301
12.8889	12.7455	-0.00076756	0.00352183
12.8893	12.746	-0.000628714	0.00224491
12.8898	12.7465	0.00108316	0.00268396
12.8903	12.747	-6.24719e-05	0.00348119
12.8907	12.7475	-0.000482004	0.00419221
12.8912	12.7479	-0.000727146	0.00354068
12.8917	12.7484	-0.000522882	0.00223901
12.8922	12.7489	0.00110283	0.00265765
12.8926	12.7493	-5.06653e-05	0.00351282
12.8931	12.7498	-0.00061771	0.00419516
12.8936	12.7502	-0.000792101	0.00353928
12.8941	12.7507	-0.000705672	0.0022804
12.8945	12.7512	0.00117672	0.00262324
12.895	12.7517	-3.09933e-05	0.00354347
12.8955	12.7521	-0.000680864	0.00413133
12.8959	12.7526	-0.000683397	0.00356371
12.8964	12.7531	-0.000614643	0.00224164
12.8969	12.7535	0.0010182	0.00266028
12.8974	12.754	7.20393e-05	0.00344866
12.8978	12.7545	-0.000684467	0.0043152
12.8983	12.7549	-0.000673997	0.00340367
12.8988	12.7554	-0.00053155	0.00213953
