# 1304     AichiSR QXAFS
# Start     : 8.9544
# End       : 9.0544
# Dir       : Forward
# Points    : 300
# ScanTime  : 1.01549
# Date      : 13.04.23 22:46
# Ring Cur. : 0.9[mA]
12.7557	12.756	-0.00132333	0.00380019
12.7562	12.7555	-0.000255197	0.00290423
12.7566	12.755	-4.38354e-06	0.00231063
12.7571	12.7545	0.000427151	0.00284572
12.7576	12.754	0.000107317	0.00415951
12.7581	12.7536	-0.00143864	0.00376331
12.7585	12.7531	-0.000249793	0.00290267
12.759	12.7526	-2.38592e-06	0.00218919
12.7595	12.7522	0.000280102	0.00299002
12.7599	12.7517	0.000101913	0.00417041
12.7604	12.7513	-0.00153787	0.00379757
12.7609	12.7508	-0.000440787	0.00296978
12.7614	12.7503	9.86491e-05	0.00224819
12.7618	12.7498	0.000371667	0.00291406
12.7623	12.7494	5.97689e-05	0.00414271
12.7628	12.7489	-0.00142943	0.00367876
12.7632	12.7485	-0.000319884	0.00291438
12.7637	12.748	0.000175803	0.00229801
12.7642	12.7475	0.000236959	0.00284539
12.7647	12.747	0.000173538	0.00406642
12.7651	12.7466	-0.00146138	0.0036867
12.7656	12.7461	-0.000372034	0.00285269
12.7661	12.7456	0.000113185	0.00227359
12.7666	12.7451	0.000236157	0.0030523
12.767	12.7446	0.000105248	0.00424654
12.7675	12.7442	-0.00148538	0.00373341
12.768	12.7437	-0.000357427	0.00291201
12.7684	12.7432	0.000273236	0.00224787
12.7689	12.7428	0.000192408	0.00300124
12.7694	12.7423	0.000202681	0.00423236
12.7699	12.7418	-0.00149999	0.00374554
12.7703	12.7414	-0.000239859	0.00283433
12.7708	12.7409	0.000318982	0.00235562
12.7713	12.7404	0.000119587	0.00308655
12.7717	12.7399	0.000302378	0.00429636
12.7722	12.7395	-0.001308	0.00378151
12.7727	12.739	-0.000327018	0.00292651
12.7732	12.7385	0.000348392	0.00226859
12.7736	12.7381	0.000116787	0.00304124
12.7741	12.7376	0.000131323	0.00424047
12.7746	12.7371	-0.00136348	0.00366007
12.7751	12.7366	-0.00039991	0.00285039
12.7755	12.7362	0.000381137	0.00238176
12.776	12.7357	0.000146661	0.0030677
12.7765	12.7352	0.000179138	0.00434586
12.7769	12.7347	-0.00132767	0.00374882
12.7774	12.7342	-0.000255197	0.00280024
12.7779	12.7338	0.000313846	0.00226532
12.7784	12.7333	4.52333e-05	0.00308155
12.7788	12.7328	0.000101449	0.0043538
12.7793	12.7324	-0.00138035	0.00371317
12.7798	12.7319	-0.000359763	0.00276443
12.7802	12.7314	0.000466495	0.00238069
12.7807	12.7309	-2.53218e-05	0.00323896
12.7812	12.7305	8.53086e-05	0.00431332
12.7817	12.73	-0.00135194	0.00375521
12.7821	12.7295	-0.000294077	0.002662
12.7826	12.7291	0.000463963	0.00237709
12.7831	12.7286	6.87042e-05	0.00313293
12.7836	12.7281	-5.09328e-05	0.00427408
12.784	12.7276	-0.00133814	0.00374726
12.7845	12.7272	-0.000392704	0.00256375
12.785	12.7267	0.000684564	0.00236979
12.7854	12.7262	-0.00010055	0.00311801
12.7859	12.7257	5.4365e-05	0.00422753
12.7864	12.7253	-0.00124258	0.00374243
12.7869	12.7248	-0.000462528	0.00267413
12.7873	12.7243	0.000613277	0.00237011
12.7878	12.7238	0.000116252	0.00325936
12.7883	12.7234	-1.85092e-06	0.00426087
12.7887	12.7229	-0.00125071	0.00354674
12.7892	12.7224	-0.000485535	0.00248001
12.7897	12.722	0.000539387	0.00238053
12.7902	12.7215	3.21603e-05	0.00325297
12.7906	12.721	-0.00014223	0.00426662
12.7911	12.7206	-0.00101577	0.0035206
12.7916	12.7201	-0.000430853	0.00261513
12.7921	12.7196	0.000638817	0.00246771
12.7925	12.7192	-1.6654e-05	0.00323102
12.793	12.7187	-0.000125358	0.0041936
12.7935	12.7182	-0.00111293	0.003699
12.7939	12.7178	-0.000492937	0.00244854
12.7944	12.7173	0.000707571	0.0025309
12.7949	12.7168	-0.000100282	0.00323445
12.7954	12.7163	-0.00018004	0.00423253
12.7958	12.7159	-0.000984094	0.00375521
12.7963	12.7154	-0.000574032	0.00244232
12.7968	12.7149	0.000724978	0.00254695
12.7972	12.7144	-5.88693e-05	0.00333672
12.7977	12.714	-0.000223718	0.00420434
12.7982	12.7135	-0.00102857	0.00351282
12.7987	12.713	-0.000526948	0.00244543
12.7991	12.7125	0.000740583	0.00246256
12.7996	12.7121	-6.70022e-05	0.00334156
12.8001	12.7116	-0.000372301	0.00423859
12.8006	12.7111	-0.00090867	0.0035338
12.801	12.7107	-0.000487069	0.0023648
12.8015	12.7102	0.000881426	0.00256268
12.802	12.7097	-0.000111554	0.00332615
12.8024	12.7093	-0.000533351	0.0042817
12.8029	12.7088	-0.000983827	0.00345988
12.8034	12.7083	-0.000507811	0.0021842
12.8039	12.7079	0.000905771	0.00256236
12.8043	12.7074	-0.000190777	0.00340818
12.8048	12.7069	-0.00048047	0.00406191
12.8053	12.7064	-0.000947818	0.00347217
12.8057	12.7059	-0.000693134	0.0023838
12.8062	12.7055	0.000860952	0.0026634
12.8067	12.705	-8.90105e-05	0.0033509
12.8072	12.7045	-0.000525218	0.00421851
12.8076	12.704	-0.000906601	0.00347996
12.8081	12.7035	-0.000478865	0.00229817
12.8086	12.7031	0.000862289	0.00259489
12.8091	12.7026	-9.97471e-05	0.00341473
12.8095	12.7021	-0.000623578	0.0041827
12.81	12.7017	-0.000801838	0.00357305
12.8105	12.7012	-0.000676798	0.00225941
12.8109	12.7007	0.000962985	0.00261996
12.8114	12.7002	-0.000107951	0.00364327
12.8119	12.6998	-0.00071821	0.00416918
12.8124	12.6993	-0.000705405	0.00346267
12.8128	12.6989	-0.00056483	0.00217206
12.8133	12.6984	0.000975523	0.0027101
12.8138	12.6979	-0.000111821	0.00346906
12.8142	12.6974	-0.000582433	0.00417713
12.8147	12.697	-0.000732015	0.00352495
12.8152	12.6965	-0.000621848	0.00219091
12.8157	12.696	0.000936447	0.00266044
12.8161	12.6955	-8.64778e-05	0.0035774
12.8166	12.6951	-0.000691868	0.00427628
12.8171	12.6946	-0.000774961	0.00351405
12.8176	12.6941	-0.000620778	0.00220599
12.818	12.6936	0.000867158	0.00264504
12.8185	12.6932	-0.000103617	0.00361369
12.819	12.6927	-0.000771626	0.00407388
12.8194	12.6923	-0.000627181	0.00336835
12.8199	12.6918	-0.000580899	0.00224647
12.8204	12.6913	0.00106349	0.00272911
12.8209	12.6908	-8.3874e-05	0.00362958
12.8213	12.6904	-0.00083198	0.00407888
12.8218	12.6899	-0.000597503	0.00335696
12.8223	12.6894	-0.000529284	0.00216895
12.8227	12.689	0.00105628	0.00274452
12.8232	12.6885	-3.27946e-05	0.00358288
12.8237	12.688	-0.00101017	0.00410642
12.8242	12.6876	-0.000616177	0.00338171
12.8246	12.6871	-0.000713609	0.00206915
12.8251	12.6866	0.000854085	0.00270125
12.8256	12.6861	-1.35864e-05	0.00370571
12.8261	12.6856	-0.000997363	0.00422646
12.8265	12.6852	-0.000500338	0.00333533
12.827	12.6847	-0.000645319	0.00214264
12.8275	12.6842	0.000962985	0.00285645
12.8279	12.6837	-1.10538e-05	0.003777
12.8284	12.6833	-0.00102397	0.00404323
12.8289	12.6828	-0.000713609	0.00339417
12.8294	12.6823	-0.000534885	0.00224556
12.8298	12.6819	0.000839014	0.0027487
12.8303	12.6814	5.82351e-05	0.00374914
12.8308	12.6809	-0.00104464	0.00409756
12.8312	12.6804	-0.000617978	0.00335992
12.8317	12.68	-0.000656056	0.00206603
12.8322	12.6795	0.000854085	0.00277533
12.8327	12.679	1.80886e-05	0.00388598
12.8331	12.6786	-0.00104338	0.00404914
12.8336	12.6781	-0.000492206	0.00319972
12.8341	12.6776	-0.000429319	0.0022454
12.8346	12.6771	0.000723444	0.00287063
12.835	12.6767	-4.63313e-05	0.00380019
12.8355	12.6762	-0.00113981	0.00398949
12.836	12.6757	-0.000559693	0.00319569
12.8364	12.6752	-0.000466131	0.00217313
12.8369	12.6747	0.000658489	0.00273378
12.8374	12.6743	-2.4323e-05	0.00373513
12.8379	12.6738	-0.00128625	0.00389409
12.8383	12.6733	-0.000523881	0.00314555
12.8388	12.6728	-0.000456126	0.00202743
12.8393	12.6724	0.000698903	0.00279589
12.8397	12.6719	1.83561e-05	0.0038796
12.8402	12.6715	-0.00115588	0.00403856
12.8407	12.671	-0.000364365	0.00306582
12.8412	12.6705	-0.000305545	0.00223729
12.8416	12.67	0.000480835	0.00284072
12.8421	12.6696	-1.51202e-05	0.00384985
12.8426	12.6691	-0.00117455	0.0038687
12.8431	12.6687	-0.000445656	0.0031412
12.8435	12.6682	-0.000235257	0.00221099
12.844	12.6677	0.000582334	0.00292742
12.8445	12.6672	5.02985e-05	0.00391025
12.8449	12.6668	-0.00141003	0.00384223
12.8454	12.6663	-0.000492206	0.00323118
12.8459	12.6658	-0.000284607	0.00221271
12.8464	12.6653	0.000565729	0.00289865
12.8468	12.6648	6.23015e-05	0.00400554
12.8473	12.6644	-0.00138469	0.0039481
12.8478	12.6639	-0.00037997	0.00313744
12.8482	12.6634	-0.000129424	0.00217813
12.8487	12.663	0.000434553	0.00291201
12.8492	12.6625	3.42292e-05	0.00409117
12.8497	12.662	-0.0013164	0.00388877
12.8501	12.6616	-0.00048607	0.00304451
12.8506	12.6611	-6.18485e-06	0.00217985
12.8511	12.6606	0.000483635	0.00289366
12.8516	12.6602	6.13027e-05	0.00404725
12.852	12.6597	-0.00127325	0.0037974
12.8525	12.6592	-0.000456661	0.00305058
12.853	12.6588	-7.64725e-05	0.00219075
12.8534	12.6583	0.000487237	0.00294036
12.8539	12.6578	0.00021315	0.00413476
12.8544	12.6573	-0.00144784	0.00378291
12.8549	12.6569	-0.00043492	0.00302551
12.8553	12.6564	-6.71985e-06	0.00215478
12.8558	12.6559	0.00041028	0.0028331
12.8563	12.6554	0.000102181	0.00407748
12.8567	12.6549	-0.0014335	0.00372751
12.8572	12.6545	-0.000372569	0.00285055
12.8577	12.654	0.000188145	0.00219853
12.8582	12.6535	0.000227756	0.0027968
12.8586	12.6531	0.000163337	0.00410051
12.8591	12.6526	-0.0015314	0.00373062
12.8596	12.6521	-0.000265398	0.00292635
12.8601	12.6517	0.000154865	0.00229752
12.8605	12.6512	0.000254099	0.00294831
12.861	12.6507	0.00015153	0.00416279
12.8615	12.6502	-0.00145624	0.00381732
12.8619	12.6497	-0.000361564	0.00287186
12.8624	12.6493	0.000100914	0.00218264
12.8629	12.6488	0.000311581	0.00285441
12.8634	12.6483	0.000230289	0.00414411
12.8638	12.6479	-0.00157668	0.00365524
12.8643	12.6474	-0.000327286	0.00291529
12.8648	12.6469	0.000189144	0.00226671
12.8652	12.6464	0.000304447	0.00300248
12.8657	12.646	0.000130592	0.00420466
12.8662	12.6455	-0.00153906	0.003718
12.8667	12.645	-0.000381236	0.00279106
12.8671	12.6445	0.000205481	0.00231637
12.8676	12.644	0.000144663	0.00308483
12.8681	12.6436	0.000187075	0.00422523
12.8686	12.6431	-0.00140129	0.00369744
12.869	12.6426	-0.000376368	0.00277705
12.8695	12.6422	0.000412616	0.00224991
12.87	12.6417	0.000103786	0.00299313
12.8704	12.6413	0.000189411	0.00417975
12.8709	12.6408	-0.00138442	0.00366695
12.8714	12.6403	-0.000352362	0.0027931
12.8719	12.6398	0.000248427	0.00229366
12.8723	12.6394	0.0001554	0.00302411
12.8728	12.6389	9.07125e-05	0.00429169
12.8733	12.6384	-0.0014361	0.0036204
12.8737	12.638	-0.00037437	0.00272379
12.8742	12.6375	0.000470366	0.00239953
12.8747	12.637	0.000164068	0.00314555
12.8752	12.6365	0.000101717	0.00436937
12.8756	12.6361	-0.00135788	0.00364901
12.8761	12.6356	-0.000363098	0.00266512
12.8766	12.6351	0.000502308	0.00236372
12.8771	12.6346	-1.04843e-06	0.00303549
12.8775	12.6342	-2.30567e-05	0.00427939
12.878	12.6337	-0.00130646	0.00366818
12.8785	12.6332	-0.000434652	0.00262152
12.8789	12.6328	0.000436622	0.00237119
12.8794	12.6323	6.35311e-06	0.00318791
12.8799	12.6318	1.42897e-05	0.0042576
12.8804	12.6314	-0.00139622	0.00361197
12.8808	12.6309	-0.000435187	0.00260252
12.8813	12.6304	0.000557793	0.00239282
12.8818	12.6299	1.5021e-05	0.00320659
12.8822	12.6295	-0.000114086	0.00430307
12.8827	12.629	-0.00141816	0.0035374
12.8832	12.6285	-0.000437524	0.00258883
12.8837	12.6281	0.000604806	0.00240511
12.8841	12.6276	7.08442e-06	0.00310802
12.8846	12.6271	-8.41415e-05	0.00424187
12.8851	12.6266	-0.00114568	0.0036132
12.8856	12.6262	-0.000603442	0.00257465
12.886	12.6257	0.000636819	0.00250615
12.8865	12.6252	-0.000133491	0.00323585
12.887	12.6247	-0.000172104	0.00427939
12.8874	12.6242	-0.00115281	0.00354519
12.8879	12.6238	-0.000497271	0.00256596
12.8884	12.6233	0.000658489	0.00242551
12.8889	12.6228	-6.71985e-06	0.00324315
12.8893	12.6224	-0.00018004	0.00433979
12.8898	12.6219	-0.00112287	0.00357632
12.8903	12.6214	-0.000531817	0.0023911
12.8907	12.6209	0.000761058	0.00237569
12.8912	12.6205	-6.16694e-05	0.00320144
12.8917	12.62	-0.000247528	0.00428407
12.8922	12.6195	-0.0011114	0.00359673
12.8926	12.6191	-0.000515213	0.00252188
12.8931	12.6186	0.000864019	0.00245386
12.8936	12.6181	-9.59482e-05	0.00330263
12.8941	12.6176	-0.000292543	0.0043261
12.8945	12.6172	-0.000927343	0.003635
12.895	12.6167	-0.000581166	0.00224958
12.8955	12.6162	0.000744917	0.0025826
12.8959	12.6157	-9.28806e-05	0.00330591
12.8964	12.6153	-0.000304814	0.00417648
12.8969	12.6148	-0.000994028	0.00354223
12.8974	12.6143	-0.000507811	0.0024224
12.8978	12.6138	0.000829812	0.00246787
12.8983	12.6134	8.88573e-06	0.00334204
12.8988	12.6129	-0.000544088	0.0041659
