# 1304     AichiSR QXAFS
# Start     : 8.9544
# End       : 9.0544
# Dir       : Backward
# Points    : 300
# ScanTime  : 1.01549
# Date      : 13.04.23 23:46
# Ring Cur. : 1[mA]
12.7557	12.6124	0.000662092	0.00283401
12.7562	12.6128	0.000148997	0.00397875
12.7566	12.6133	-0.00126298	0.00394917
12.7571	12.6138	-0.00045386	0.00314244
12.7576	12.6142	-0.000201513	0.00213749
12.7581	12.6147	0.000629882	0.00281302
12.7585	12.6152	0.000111116	0.00389312
12.759	12.6157	-0.00130773	0.00389549
12.7595	12.6161	-0.000323754	0.00315489
12.7599	12.6166	-0.000127088	0.00221378
12.7604	12.6171	0.000506642	0.00292635
12.7609	12.6176	3.90269e-05	0.00399276
12.7614	12.618	-0.00127272	0.00396539
12.7618	12.6185	-0.000305812	0.00312531
12.7623	12.619	-0.000148098	0.00212691
12.7628	12.6194	0.000500239	0.00283277
12.7632	12.6199	0.000155667	0.00410035
12.7637	12.6204	-0.00139749	0.00386902
12.7642	12.6209	-0.000434188	0.00299297
12.7647	12.6213	-6.4202e-05	0.00222172
12.7651	12.6218	0.000441955	0.00291717
12.7656	12.6223	0.000118321	0.00408183
12.7661	12.6227	-0.00137035	0.00376299
12.7666	12.6232	-0.000340359	0.00303501
12.767	12.6237	6.87042e-05	0.00217829
12.7675	12.6242	0.000462429	0.00299576
12.768	12.6246	0.000159734	0.00415779
12.7684	12.6251	-0.00134994	0.00385297
12.7689	12.6256	-0.000346226	0.0030523
12.7694	12.6261	6.87042e-05	0.00230252
12.7699	12.6265	0.000389609	0.00294815
12.7703	12.627	0.0001638	0.0042962
12.7708	12.6275	-0.00137909	0.00376717
12.7713	12.628	-0.000346958	0.00290971
12.7717	12.6285	0.000131858	0.0022236
12.7722	12.6289	0.000269437	0.0029402
12.7727	12.6294	0.000194744	0.00413804
12.7732	12.6298	-0.0014343	0.00384985
12.7736	12.6303	-0.000265933	0.00288308
12.7741	12.6308	0.000230557	0.00228277
12.7746	12.6313	0.000283705	0.00296216
12.7751	12.6317	0.000261233	0.00419098
12.7755	12.6322	-0.00133587	0.003758
12.776	12.6327	-0.000357962	0.00286719
12.7765	12.6331	0.000301112	0.00227171
12.7769	12.6336	0.000340991	0.00298396
12.7774	12.6341	0.000281707	0.00423285
12.7779	12.6345	-0.0013172	0.00357665
12.7784	12.635	-0.000356963	0.00294036
12.7788	12.6355	0.000247428	0.00224508
12.7793	12.636	0.00025203	0.00294831
12.7798	12.6365	0.000254366	0.00422785
12.7802	12.6369	-0.00149719	0.00380207
12.7807	12.6374	-0.000330888	0.00295921
12.7812	12.6379	0.000356596	0.00240323
12.7817	12.6383	0.000237227	0.00302255
12.7821	12.6388	0.000171469	0.00418394
12.7826	12.6393	-0.00141256	0.00372112
12.7831	12.6397	-0.000262598	0.00284539
12.7836	12.6402	0.000380602	0.00217469
12.784	12.6407	0.000164335	0.00311006
12.7845	12.6412	0.0001582	0.00419655
12.785	12.6416	-0.00138875	0.0036277
12.7854	12.6421	-0.000369501	0.00277549
12.7859	12.6425	0.00034866	0.00230596
12.7864	12.643	0.000163069	0.0030246
12.7869	12.6435	0.000122923	0.00437576
12.7873	12.6439	-0.00119143	0.00361025
12.7878	12.6444	-0.000310949	0.00277909
12.7883	12.6449	0.000387272	0.00236512
12.7887	12.6454	0.000170203	0.0031857
12.7892	12.6459	0.000105783	0.00434011
12.7897	12.6463	-0.00126578	0.00373545
12.7902	12.6468	-0.000272336	0.00278607
12.7906	12.6473	0.000446823	0.0023466
12.7911	12.6478	2.29575e-05	0.00321438
12.7916	12.6482	0.000138528	0.00430119
12.7921	12.6487	-0.00131846	0.00355297
12.7925	12.6492	-0.000356428	0.00257433
12.793	12.6496	0.000649821	0.00231481
12.7935	12.6501	3.28917e-05	0.00320439
12.7939	12.6506	7.17718e-05	0.00413927
12.7944	12.6511	-0.00117636	0.00366818
12.7949	12.6516	-0.000301478	0.00258137
12.7954	12.652	0.000644952	0.00249402
12.7958	12.6525	1.80886e-05	0.00315022
12.7963	12.653	-0.000145298	0.00428186
12.7968	12.6534	-0.00129646	0.00359828
12.7972	12.6539	-0.000414713	0.00268707
12.7977	12.6544	0.000722713	0.00239905
12.7982	12.6548	7.66408e-05	0.00327896
12.7987	12.6553	-2.55893e-05	0.00419344
12.7991	12.6558	-0.00102144	0.00363828
12.7996	12.6563	-0.000477599	0.00239282
12.8001	12.6568	0.000635749	0.00256982
12.8006	12.6572	-2.17904e-05	0.00327912
12.801	12.6577	-0.000243194	0.00412338
12.8015	12.6582	-0.000988695	0.00357477
12.802	12.6587	-0.000411645	0.00256204
12.8024	12.6591	0.000823409	0.00257605
12.8029	12.6596	-2.12554e-05	0.00332738
12.8034	12.66	-0.000282538	0.00423892
12.8039	12.6605	-0.000997898	0.00366163
12.8043	12.661	-0.00048887	0.00253155
12.8048	12.6615	0.00079967	0.00254277
12.8053	12.6619	8.35785e-05	0.00329796
12.8057	12.6624	-0.000284072	0.00425416
12.8062	12.6629	-0.0010015	0.00366195
12.8067	12.6633	-0.000370767	0.00244731
12.8072	12.6638	0.00091237	0.00262587
12.8076	12.6643	6.59041e-05	0.00339884
12.8081	12.6647	-0.000325484	0.00430291
12.8086	12.6652	-0.00100377	0.00363098
12.8091	12.6657	-0.000315747	0.00241322
12.8095	12.6662	0.000889363	0.00254663
12.81	12.6667	7.35192e-06	0.00330468
12.8105	12.6671	-0.000488603	0.00418394
12.8109	12.6676	-0.000882863	0.00356714
12.8114	12.6681	-0.000504209	0.00247255
12.8119	12.6685	0.000984994	0.00251286
12.8124	12.669	-5.91735e-06	0.00336663
12.8128	12.6695	-0.000425449	0.00431939
12.8133	12.6699	-0.000932943	0.00357353
12.8138	12.6704	-0.000560228	0.00236684
12.8142	12.6709	0.000883762	0.00260161
12.8147	12.6714	-2.66593e-05	0.00340039
12.8152	12.6718	-0.000445924	0.00428857
12.8157	12.6723	-0.000739149	0.00339744
12.8161	12.6727	-0.000513679	0.00226687
12.8166	12.6732	0.00102921	0.00276288
12.8171	12.6737	-0.000161099	0.00349676
12.8176	12.6742	-0.000549688	0.00428267
12.818	12.6746	-0.000726878	0.00362008
12.8185	12.6751	-0.000507811	0.00225893
12.819	12.6756	0.00100213	0.00273485
12.8194	12.6761	-3.65223e-06	0.00355453
12.8199	12.6766	-0.000579098	0.00418754
12.8204	12.677	-0.000792297	0.00353461
12.8209	12.6775	-0.000623311	0.00227605
12.8213	12.678	0.00106069	0.00258244
12.8218	12.6785	2.75589e-05	0.00340195
12.8223	12.6789	-0.000585768	0.0041047
12.8227	12.6794	-0.000706939	0.00345816
12.8232	12.6799	-0.000490404	0.00217223
12.8237	12.6803	0.000943313	0.0025862
12.8242	12.6808	-6.18485e-06	0.0035192
12.8246	12.6813	-0.00066426	0.00419811
12.8251	12.6818	-0.000662726	0.00350004
12.8256	12.6822	-0.000634118	0.00234332
12.8261	12.6827	0.00102714	0.00264504
12.8265	12.6832	4.44308e-05	0.00362303
12.827	12.6836	-0.000739951	0.00415033
12.8275	12.6841	-0.000758089	0.0034289
12.8279	12.6846	-0.000587837	0.00229989
12.8284	12.6851	0.00102414	0.00276476
12.8289	12.6855	-6.57359e-05	0.00368203
12.8294	12.686	-0.000745551	0.00417057
12.8298	12.6865	-0.000625647	0.00335745
12.8303	12.687	-0.000586035	0.00223385
12.8308	12.6875	0.000907768	0.00273222
12.8312	12.6879	3.5763e-05	0.00366302
12.8317	12.6884	-0.000799235	0.00425432
12.8322	12.6889	-0.000559426	0.00331697
12.8327	12.6893	-0.00066706	0.00222672
12.8331	12.6898	0.000852551	0.0026634
12.8336	12.6903	1.34872e-05	0.00372251
12.8341	12.6907	-0.000932212	0.00405831
12.8346	12.6912	-0.000487069	0.0033509
12.835	12.6917	-0.000508007	0.00224835
12.8355	12.6921	0.00091797	0.00284572
12.836	12.6926	-4.3995e-05	0.00372841
12.8364	12.6931	-0.000927807	0.00402267
12.8369	12.6935	-0.000404779	0.00329829
12.8374	12.694	-0.000431121	0.00219697
12.8379	12.6945	0.000797334	0.00285908
12.8383	12.695	-7.90763e-05	0.00371816
12.8388	12.6954	-0.000940345	0.00413321
12.8393	12.6959	-0.000399375	0.00318726
12.8397	12.6964	-0.000402977	0.00229178
12.8402	12.6969	0.000858954	0.00285146
12.8407	12.6973	-7.0141e-05	0.00371677
12.8412	12.6978	-0.000935744	0.00402513
12.8416	12.6983	-0.000465596	0.00324331
12.8421	12.6987	-0.000408845	0.00209454
12.8426	12.6992	0.000738051	0.00274731
12.8431	12.6997	1.14183e-05	0.00394031
12.8435	12.7001	-0.00108199	0.00395309
12.844	12.7006	-0.000405777	0.00331026
12.8445	12.7011	-0.000394773	0.00211462
12.8449	12.7016	0.000757455	0.00273813
12.8454	12.702	-1.85092e-06	0.00384641
12.8459	12.7025	-0.00120163	0.00392598
12.8464	12.703	-0.000437987	0.00321389
12.8468	12.7034	-0.000258532	0.00204317
12.8473	12.7039	0.000579266	0.00291964
12.8478	12.7044	7.05055e-05	0.00391557
12.8482	12.7049	-0.00125431	0.00401209
12.8487	12.7054	-0.000303012	0.00326404
12.8492	12.7058	-0.000207916	0.00205809
12.8497	12.7063	0.000628348	0.00280663
12.8501	12.7068	0.000147463	0.00408339
12.8506	12.7073	-0.00125711	0.00394842
12.8511	12.7078	-0.000349026	0.00310491
12.8516	12.7082	-0.00017724	0.00220353
12.852	12.7087	0.000661093	0.002839
12.8525	12.7092	2.483e-06	0.00390434
12.853	12.7096	-0.0013302	0.00390778
12.8534	12.7101	-0.000327553	0.00316595
12.8539	12.7106	-0.000198446	0.00226016
12.8544	12.711	0.000591001	0.00284695
12.8549	12.7115	0.000133659	0.00402423
12.8553	12.712	-0.00134634	0.00394015
12.8558	12.7125	-0.000288209	0.00305385
12.8563	12.7129	-2.79257e-05	0.00222607
12.8567	12.7134	0.000474699	0.0028921
12.8572	12.7138	0.000147731	0.00395089
12.8577	12.7143	-0.0013172	0.00382199
12.8582	12.7148	-0.00031168	0.0030137
12.8586	12.7153	-0.000117154	0.00227761
12.8591	12.7158	0.000582601	0.00284228
12.8596	12.7162	0.0001666	0.00401628
12.8601	12.7167	-0.00136628	0.00375676
12.8605	12.7172	-0.000314016	0.00305278
12.861	12.7177	-1.53877e-05	0.00213814
12.8615	12.7181	0.000411813	0.00289956
12.8619	12.7186	6.28365e-05	0.00416091
12.8624	12.7191	-0.00139389	0.00380519
12.8629	12.7195	-0.000292008	0.00296527
12.8634	12.72	-2.27892e-05	0.00229162
12.8638	12.7205	0.000603539	0.00293864
12.8643	12.7209	0.000134925	0.004155
12.8648	12.7214	-0.00137241	0.00387181
12.8652	12.7219	-0.000269268	0.00300403
12.8657	12.7223	0.000169472	0.00222451
12.8662	12.7228	0.000409745	0.0030618
12.8667	12.7233	0.000179673	0.00417229
12.8671	12.7237	-0.00148772	0.00367768
12.8676	12.7242	-0.00039991	0.0029475
12.8681	12.7247	0.00019041	0.00220943
12.8686	12.7252	0.000410743	0.0030042
12.869	12.7256	0.000208084	0.00428095
12.8695	12.7261	-0.00137855	0.00373931
12.87	12.7266	-0.000222255	0.00287621
12.8704	12.7271	0.000298775	0.0022236
12.8709	12.7275	0.000255829	0.00295405
12.8714	12.728	0.000190874	0.00416214
12.8719	12.7285	-0.00140616	0.00376267
12.8723	12.729	-0.000306347	0.00289194
12.8728	12.7294	0.000247696	0.00231637
12.8733	12.7299	0.0001554	0.00294364
12.8737	12.7304	0.000302378	0.0043225
12.8742	12.7308	-0.00133921	0.00369481
12.8747	12.7313	-0.000319082	0.00279697
12.8752	12.7318	0.000336657	0.00225957
12.8756	12.7323	0.000165067	0.00303861
12.8761	12.7327	0.000133124	0.00426194
12.8766	12.7332	-0.00138775	0.00378741
12.8771	12.7337	-0.000242926	0.00286703
12.8775	12.7341	0.000410743	0.00224073
12.878	12.7346	0.000184542	0.00313154
12.8785	12.7351	0.000296243	0.00420606
12.8789	12.7356	-0.00144504	0.00372997
12.8794	12.7361	-0.000346761	0.00281302
12.8799	12.7365	0.000382404	0.00227605
12.8804	12.737	0.000158931	0.00305681
12.8808	12.7375	6.13027e-05	0.00443444
12.8813	12.738	-0.00121597	0.00370383
12.8818	12.7385	-0.000375101	0.00266356
12.8822	12.7389	0.000424351	0.00237135
12.8827	12.7394	4.90322e-05	0.00320611
12.8832	12.7398	7.69083e-05	0.00426104
12.8837	12.7403	-0.00132027	0.0036168
12.8841	12.7408	-0.00030328	0.0027101
12.8846	12.7413	0.000539387	0.00245354
12.8851	12.7417	8.40423e-05	0.00320439
12.8856	12.7422	8.96425e-05	0.00422957
12.886	12.7427	-0.00116328	0.0036663
12.8865	12.7431	-0.000328819	0.00265684
12.887	12.7436	0.000671294	0.00236668
12.8874	12.7441	6.53691e-05	0.00309852
12.8879	12.7446	5.55062e-06	0.00432889
12.8884	12.745	-0.00119449	0.0036109
12.8889	12.7455	-0.000249329	0.00264831
12.8893	12.746	0.000603272	0.00229318
12.8898	12.7465	-2.9192e-05	0.00322978
12.8903	12.7469	-4.9934e-05	0.00424294
12.8907	12.7474	-0.0010976	0.00354658
12.8912	12.7479	-0.000406509	0.00263414
12.8917	12.7484	0.000779463	0.00257481
12.8922	12.7488	6.59041e-05	0.00319521
12.8926	12.7493	-0.000135292	0.00425899
12.8931	12.7497	-0.00107839	0.00363425
12.8936	12.7502	-0.000450258	0.00260268
12.8941	12.7507	0.000761058	0.00238799
12.8945	12.7512	-2.40555e-05	0.00332287
12.895	12.7516	-2.73907e-05	0.00429185
12.8955	12.7521	-0.000948549	0.00355437
12.8959	12.7526	-0.000439521	0.00249681
12.8964	12.753	0.00086302	0.0023802
12.8969	12.7535	-5.60692e-05	0.00328551
12.8974	12.754	-0.000256731	0.00432782
12.8978	12.7544	-0.00104545	0.00348479
12.8983	12.7549	-0.000495006	0.0024923
12.8988	12.7554	0.000894766	0.00258588
