# 1304     AichiSR QXAFS
# Start     : 8.9544
# End       : 9.0544
# Dir       : Backward
# Points    : 300
# ScanTime  : 1.01549
# Date      : 13.04.24 00:04
# Ring Cur. : 1[mA]
12.7557	12.6124	-0.000249329	0.00214404
12.7562	12.6128	0.00075412	0.00285146
12.7566	12.6133	-4.68663e-05	0.00386665
12.7571	12.6138	-0.00115335	0.00394343
12.7576	12.6142	-0.000331887	0.00306271
12.7581	12.6147	-0.000225056	0.0022032
12.7585	12.6152	0.000794801	0.00291701
12.759	12.6157	0.000114718	0.00391975
12.7595	12.6161	-0.00114027	0.00398579
12.7599	12.6166	-0.000368235	0.00303206
12.7604	12.6171	-0.000296877	0.00211962
12.7609	12.6176	0.00068023	0.00281286
12.7614	12.618	0.000202681	0.00386419
12.7618	12.6185	-0.00119089	0.00395121
12.7623	12.619	-0.000336221	0.00308982
12.7628	12.6194	-0.000159102	0.00222172
12.7632	12.6199	0.000692768	0.0028004
12.7637	12.6204	0.000145662	0.00396334
12.7642	12.6209	-0.00113387	0.0039853
12.7647	12.6213	-0.000365631	0.0030945
12.7651	12.6218	-0.000134561	0.00220009
12.7656	12.6223	0.000633484	0.00278967
12.7661	12.6228	0.000170203	0.00398342
12.7666	12.6232	-0.00112854	0.00389484
12.767	12.6237	-0.0003733	0.00320799
12.7675	12.6242	-3.81273e-05	0.0021842
12.768	12.6246	0.000553191	0.00275058
12.7684	12.6251	0.000102716	0.00393097
12.7689	12.6256	-0.00111393	0.00375676
12.7694	12.6261	-0.000235257	0.00306663
12.7699	12.6266	-4.57963e-05	0.00215789
12.7703	12.627	0.000716506	0.00275074
12.7708	12.6275	0.000165869	0.00407356
12.7713	12.628	-0.00124564	0.00393876
12.7717	12.6285	-0.000185908	0.00295437
12.7722	12.6289	5.02985e-05	0.00209685
12.7727	12.6294	0.000535517	0.00294176
12.7732	12.6299	0.000102716	0.00403389
12.7736	12.6303	-0.00145424	0.00378683
12.7741	12.6308	-0.000266665	0.00287497
12.7746	12.6313	9.01775e-05	0.00212552
12.7751	12.6318	0.000398544	0.00276599
12.7755	12.6322	0.000103982	0.00418754
12.776	12.6327	-0.00135248	0.00382666
12.7765	12.6331	-0.000332155	0.00293413
12.7769	12.6336	0.000152065	0.00228556
12.7774	12.6341	0.000377267	0.00296183
12.7779	12.6346	0.000130592	0.00404291
12.7784	12.635	-0.00126198	0.00378044
12.7788	12.6355	-0.000283875	0.00303673
12.7793	12.636	0.000138261	0.00221099
12.7798	12.6365	0.000494371	0.00294922
12.7802	12.6369	0.000251031	0.00405536
12.7807	12.6374	-0.00128445	0.00359952
12.7812	12.6379	-0.000390974	0.00301805
12.7817	12.6384	3.85631e-05	0.00216396
12.7821	12.6388	0.000471097	0.00275074
12.7826	12.6393	0.000303181	0.00414206
12.7831	12.6397	-0.00125124	0.00369481
12.7836	12.6402	-0.000344158	0.0029293
12.784	12.6407	0.000295975	0.00220615
12.7845	12.6412	0.000467762	0.00293864
12.785	12.6416	0.000348927	0.00408666
12.7854	12.6421	-0.00142203	0.00373341
12.7859	12.6426	-0.000241392	0.00295077
12.7864	12.643	0.000263034	0.00212503
12.7869	12.6435	0.000457293	0.00290439
12.7873	12.6439	0.000300577	0.00412666
12.7878	12.6444	-0.00125945	0.00376455
12.7883	12.6449	-0.00024166	0.00297306
12.7887	12.6454	0.000285774	0.00223106
12.7892	12.6459	0.000535517	0.00288431
12.7897	12.6463	0.000321051	0.00427923
12.7902	12.6468	-0.00136168	0.00367752
12.7906	12.6473	-0.000289475	0.00297633
12.7911	12.6478	0.000330985	0.00223106
12.7916	12.6483	0.000302646	0.00301665
12.7921	12.6487	0.000276303	0.00414518
12.7925	12.6492	-0.00127958	0.00371022
12.793	12.6497	-0.000188975	0.00285441
12.7935	12.6501	0.000268902	0.00231686
12.7939	12.6506	0.000353796	0.00302272
12.7944	12.6511	0.000330254	0.0042059
12.7949	12.6516	-0.00134094	0.0036364
12.7954	12.652	-0.000230656	0.00286375
12.7958	12.6525	0.000258433	0.00227654
12.7963	12.653	0.000337388	0.00297085
12.7968	12.6534	0.000175874	0.00399776
12.7972	12.6539	-0.00151686	0.00368064
12.7977	12.6544	-0.000304011	0.00276443
12.7982	12.6549	0.000349659	0.00231825
12.7987	12.6553	0.000354527	0.0030137
12.7991	12.6558	0.000271969	0.00419516
12.7996	12.6563	-0.00134094	0.0035796
12.8001	12.6568	-0.000235257	0.00278779
12.8006	12.6572	0.00046423	0.00235234
12.801	12.6577	0.000188876	0.00304451
12.8015	12.6582	0.000373468	0.00424203
12.802	12.6587	-0.00135454	0.00360156
12.8024	12.6591	-0.000364632	0.00274714
12.8029	12.6596	0.000526581	0.00225893
12.8034	12.6601	0.000235158	0.00296479
12.8039	12.6605	0.000201949	0.00421572
12.8043	12.661	-0.00125765	0.00369932
12.8048	12.6615	-0.000288405	0.00271977
12.8053	12.662	0.000452691	0.00219993
12.8057	12.6624	0.000208816	0.00298756
12.8062	12.6629	0.000167403	0.00417803
12.8067	12.6633	-0.00123464	0.00367752
12.8072	12.6638	-0.000231387	0.0027283
12.8076	12.6643	0.000538852	0.00240839
12.8081	12.6648	7.81746e-05	0.00308811
12.8086	12.6652	0.000291909	0.00421851
12.8091	12.6657	-0.00118069	0.00361165
12.8095	12.6662	-0.000329087	0.00266602
12.81	12.6667	0.000579266	0.00236152
12.8105	12.6671	9.17113e-05	0.00312719
12.8109	12.6676	9.07125e-05	0.0041768
12.8114	12.6681	-0.00114361	0.00367768
12.8119	12.6686	-0.000253128	0.00269749
12.8124	12.669	0.000611208	0.00241494
12.8128	12.6695	0.000135193	0.00321078
12.8133	12.6699	0.00019708	0.00419983
12.8138	12.6704	-0.00109966	0.0036867
12.8142	12.6709	-0.000326751	0.00262275
12.8147	12.6714	0.000674629	0.00237102
12.8152	12.6718	2.78264e-05	0.00315693
12.8157	12.6723	6.77054e-05	0.00416902
12.8161	12.6727	-0.00112854	0.00361369
12.8166	12.6732	-0.000294077	0.0025776
12.8171	12.6737	0.000682031	0.00237741
12.8176	12.6742	7.5642e-05	0.00310818
12.818	12.6746	-1.59227e-05	0.004214
12.8185	12.6751	-0.00116562	0.00371505
12.819	12.6756	-0.00038277	0.00260177
12.8194	12.6761	0.000732379	0.00236947
12.8199	12.6766	7.69083e-05	0.00320611
12.8204	12.677	-6.50045e-05	0.00419065
12.8209	12.6775	-0.00110933	0.00372407
12.8213	12.678	-0.000467397	0.00248328
12.8218	12.6785	0.000717576	0.00235578
12.8223	12.6789	0.000106514	0.00324191
12.8227	12.6794	-1.87228e-05	0.0041469
12.8232	12.6799	-0.00110446	0.00365835
12.8237	12.6803	-0.00038944	0.00248919
12.8242	12.6808	0.000805271	0.00242879
12.8246	12.6813	0.000123654	0.00312048
12.8251	12.6818	-0.000181306	0.00421277
12.8256	12.6822	-0.0010081	0.00345923
12.8261	12.6827	-0.000396575	0.00248747
12.8265	12.6832	0.000869691	0.00246428
12.827	12.6836	3.39617e-05	0.00334435
12.8275	12.6841	-0.00017057	0.00426243
12.8279	12.6846	-0.000907867	0.00353568
12.8284	12.6851	-0.000424451	0.00240544
12.8289	12.6856	0.000902899	0.00245477
12.8294	12.686	-7.85413e-05	0.00317996
12.8298	12.6865	-0.000193577	0.00417074
12.8303	12.687	-0.00102731	0.00352355
12.8308	12.6875	-0.000492206	0.00241494
12.8312	12.6879	0.000972188	0.00249853
12.8317	12.6884	-2.84973e-06	0.00321668
12.8322	12.6889	-0.000209182	0.00422941
12.8327	12.6893	-0.000878529	0.00355952
12.8331	12.6898	-0.00050881	0.00239282
12.8336	12.6903	0.000949716	0.00250991
12.8341	12.6907	4.74984e-05	0.00332287
12.8346	12.6912	-0.000200515	0.00405799
12.835	12.6917	-0.000866722	0.00359673
12.8355	12.6922	-0.000398108	0.00241118
12.836	12.6926	0.000940246	0.00244935
12.8364	12.6931	6.77054e-05	0.00331493
12.8369	12.6935	-0.000309415	0.00418319
12.8374	12.694	-0.000927807	0.0034303
12.8379	12.6945	-0.000440787	0.00228711
12.8383	12.695	0.000944847	0.00255458
12.8388	12.6954	-4.07311e-05	0.00328379
12.8393	12.6959	-0.000316817	0.00419672
12.8397	12.6964	-0.000919942	0.00346906
12.8402	12.6969	-0.000403512	0.00237462
12.8407	12.6973	0.000916971	0.00256392
12.8412	12.6978	4.01681e-06	0.00330559
12.8416	12.6983	-0.000394042	0.00416451
12.8421	12.6988	-0.000786697	0.0035665
12.8426	12.6992	-0.000506741	0.00230768
12.8431	12.6997	0.000985529	0.00265094
12.8435	12.7001	3.85631e-05	0.00343277
12.844	12.7006	-0.000356161	0.00411485
12.8445	12.7011	-0.000857519	0.00351716
12.8449	12.7016	-0.000424183	0.002343
12.8454	12.702	0.00099293	0.0026511
12.8459	12.7025	-6.60034e-05	0.00337736
12.8464	12.703	-0.000442856	0.0042263
12.8468	12.7034	-0.000737882	0.00355141
12.8473	12.7039	-0.0005827	0.00230112
12.8478	12.7044	0.00106702	0.00270216
12.8482	12.7049	-7.06048e-05	0.00350224
12.8487	12.7054	-0.000406776	0.00417369
12.8492	12.7058	-0.000692599	0.00348414
12.8497	12.7063	-0.000510076	0.00237741
12.8501	12.7068	0.000978591	0.00265405
12.8506	12.7073	-6.9606e-05	0.00345972
12.8511	12.7078	-0.000526217	0.00425915
12.8516	12.7082	-0.000639451	0.0035315
12.852	12.7087	-0.000517282	0.00225426
12.8525	12.7092	0.00113071	0.00260407
12.853	12.7096	-0.000126357	0.00356731
12.8534	12.7101	-0.000451257	0.00420483
12.8539	12.7106	-0.000699002	0.00355469
12.8544	12.711	-0.000580631	0.00229023
12.8549	12.7115	0.00102127	0.00276975
12.8553	12.712	-3.22596e-05	0.00350905
12.8558	12.7125	-0.000637917	0.00415951
12.8563	12.7129	-0.000621313	0.00339105
12.8567	12.7134	-0.000544355	0.00214372
12.8572	12.7139	0.00103688	0.00267118
12.8577	12.7143	7.20393e-05	0.00342686
12.8582	12.7148	-0.000619512	0.00410674
12.8586	12.7153	-0.000602907	0.00340523
12.8591	12.7158	-0.000495737	0.00214404
12.8596	12.7163	0.00111257	0.00253761
12.8601	12.7167	3.5763e-05	0.00351561
12.8605	12.7172	-0.000682933	0.00415796
12.861	12.7177	-0.000629713	0.00336491
12.8615	12.7182	-0.000575031	0.00221238
12.8619	12.7186	0.00103561	0.00274854
12.8624	12.7191	-3.86623e-05	0.00351093
12.8629	12.7195	-0.000844446	0.00407405
12.8634	12.72	-0.000607509	0.00340695
12.8638	12.7205	-0.000536954	0.00229162
12.8643	12.7209	0.00092744	0.0026911
12.8648	12.7214	4.81931e-06	0.00360091
12.8652	12.7219	-0.000714875	0.00415951
12.8657	12.7224	-0.000525147	0.0033495
12.8662	12.7228	-0.000630248	0.00220164
12.8667	12.7233	0.00102154	0.002662
12.8671	12.7237	-3.53272e-05	0.00345226
12.8676	12.7242	-0.000831712	0.00406266
12.8681	12.7247	-0.000445656	0.00337269
12.8686	12.7252	-0.000489602	0.00216133
12.869	12.7257	0.00100773	0.00275681
12.8695	12.7261	-6.29357e-05	0.00362582
12.87	12.7266	-0.00077983	0.00413788
12.8704	12.7271	-0.000394042	0.00334499
12.8709	12.7275	-0.000542821	0.002225
12.8714	12.728	0.000904166	0.00269486
12.8719	12.7285	-3.17116e-07	0.00361787
12.8723	12.729	-0.000756288	0.00407995
12.8728	12.7294	-0.000455127	0.0033182
12.8733	12.7299	-0.000593437	0.00212412
12.8737	12.7304	0.00105682	0.00278344
12.8742	12.7308	0.000159734	0.00373448
12.8747	12.7313	-0.000814573	0.00404446
12.8752	12.7318	-0.000425717	0.00328132
12.8756	12.7323	-0.000423916	0.00217781
12.8761	12.7327	0.000935377	0.00271182
12.8766	12.7332	-1.04843e-06	0.00388394
12.8771	12.7337	-0.00084985	0.00401955
12.8775	12.7341	-0.000465863	0.00322356
12.878	12.7346	-0.0004766	0.00223606
12.8785	12.7351	0.00087736	0.00277721
12.8789	12.7356	8.51123e-05	0.00373792
12.8794	12.7361	-0.000891798	0.00407233
12.8799	12.7366	-0.000464062	0.00328551
12.8804	12.737	-0.000361297	0.00210045
12.8808	12.7375	0.000940781	0.00287792
12.8813	12.738	-7.16748e-05	0.00380782
12.8818	12.7385	-0.0010081	0.00404446
12.8822	12.7389	-0.000377634	0.00317046
12.8827	12.7394	-0.000291009	0.00228137
12.8832	12.7398	0.000766658	0.00287465
12.8837	12.7403	0.000102983	0.00369153
12.8841	12.7408	-0.000982293	0.00396227
12.8846	12.7413	-0.000362563	0.00323118
12.8851	12.7418	-0.000247795	0.00210979
12.8856	12.7422	0.000889898	0.00274763
12.886	12.7427	6.77054e-05	0.00381125
12.8865	12.7431	-0.00101144	0.00400866
12.887	12.7436	-0.000304546	0.00324503
12.8874	12.7441	-0.000433653	0.00213921
12.8879	12.7446	0.00075412	0.00275026
12.8884	12.745	7.0238e-05	0.0037566
12.8889	12.7455	-0.0011086	0.0039758
12.8893	12.746	-0.000361029	0.00314743
12.8898	12.7465	-0.000341892	0.00212691
12.8903	12.7469	0.000830543	0.00292603
12.8907	12.7474	0.000106318	0.00389844
12.8912	12.7479	-0.00109453	0.00390966
12.8917	12.7484	-0.000459996	0.00317481
12.8922	12.7488	-0.000298678	0.00205406
12.8926	12.7493	0.000640351	0.00270576
12.8931	12.7498	9.89166e-05	0.00381109
12.8936	12.7502	-0.00116715	0.00395728
12.8941	12.7507	-0.000342891	0.00306024
12.8945	12.7512	-0.000213516	0.00206619
12.895	12.7516	0.000739852	0.00278016
12.8955	12.7521	7.35732e-05	0.0040071
12.8959	12.7526	-0.00108099	0.00395261
12.8964	12.753	-0.00034109	0.00306663
12.8969	12.7535	-0.000135025	0.00216396
12.8974	12.754	0.000640351	0.00289554
12.8978	12.7544	0.000188609	0.00389984
12.8983	12.7549	-0.00110473	0.00381748
12.8988	12.7554	-0.000332155	0.00312064
