# 1304     AichiSR QXAFS
# Start     : 8.9544
# End       : 9.0544
# Dir       : Backward
# Points    : 300
# ScanTime  : 1.01549
# Date      : 13.04.23 23:33
# Ring Cur. : 1[mA]
12.7557	12.6123	-0.000738881	0.00414706
12.7562	12.6128	-0.00067933	0.00341145
12.7566	12.6132	-0.000689799	0.00218919
12.7571	12.6137	0.000992395	0.00270855
12.7576	12.6142	-0.000130958	0.00351979
12.7581	12.6147	-0.000879795	0.00423752
12.7585	12.6151	-0.000594703	0.00339261
12.759	12.6156	-0.000716409	0.00217641
12.7595	12.6161	0.000938177	0.00285629
12.7599	12.6166	-0.000108219	0.00375209
12.7604	12.617	-0.000944946	0.00428063
12.7609	12.6175	-0.000569163	0.0034267
12.7614	12.618	-0.000644053	0.00221131
12.7618	12.6185	0.000835679	0.00279229
12.7623	12.6189	-8.08776e-05	0.00365712
12.7628	12.6194	-0.000861853	0.00414813
12.7632	12.6199	-0.000595238	0.00341162
12.7637	12.6203	-0.000684734	0.00218403
12.7642	12.6208	0.000916704	0.00280384
12.7647	12.6213	-6.4737e-05	0.0036976
12.7651	12.6218	-0.000842181	0.00414115
12.7656	12.6222	-0.000536419	0.00344259
12.7661	12.6227	-0.000626646	0.00218157
12.7666	12.6232	0.000879161	0.00278918
12.767	12.6236	-3.6861e-05	0.00383166
12.7675	12.6241	-0.000823776	0.00406954
12.768	12.6246	-0.000434456	0.00333533
12.7684	12.6251	-0.000733816	0.00211494
12.7689	12.6256	0.000819806	0.00273313
12.7694	12.626	2.01919e-06	0.0037194
12.7699	12.6265	-0.00106899	0.00409085
12.7703	12.627	-0.000481469	0.00315629
12.7708	12.6275	-0.00053542	0.00220648
12.7713	12.6279	0.00086022	0.00275837
12.7717	12.6284	-0.00011562	0.00380782
12.7722	12.6289	-0.00112827	0.00398375
12.7727	12.6293	-0.000483003	0.0032592
12.7732	12.6298	-0.000326822	0.00221861
12.7736	12.6303	0.000617611	0.0027909
12.7741	12.6307	1.96224e-05	0.00379896
12.7746	12.6312	-0.00125585	0.0040035
12.7751	12.6317	-0.000400908	0.00316735
12.7755	12.6322	-0.000373567	0.00215134
12.776	12.6326	0.000643953	0.00273034
12.7765	12.6331	-3.65223e-06	0.00388239
12.7769	12.6336	-0.00115741	0.00388303
12.7774	12.634	-0.000458194	0.0031966
12.7779	12.6345	-0.000371302	0.00218919
12.7784	12.635	0.000683565	0.00282671
12.7788	12.6355	6.92392e-05	0.00387911
12.7793	12.6359	-0.0013226	0.00386558
12.7798	12.6364	-0.000430586	0.00312719
12.7802	12.6369	-0.000245726	0.00217485
12.7807	12.6374	0.000625548	0.00287325
12.7812	12.6378	-8.77442e-05	0.00393237
12.7817	12.6383	-0.0013384	0.00404135
12.7821	12.6388	-0.00041218	0.00315661
12.7826	12.6392	-0.000201781	0.00212568
12.7831	12.6397	0.000525583	0.00296323
12.7836	12.6402	0.000155667	0.004013
12.784	12.6406	-0.00140256	0.00383805
12.7845	12.6411	-0.000364097	0.00308155
12.785	12.6416	-0.000195913	0.00218624
12.7854	12.642	0.000590538	0.00295593
12.7859	12.6425	3.98294e-05	0.00396678
12.7864	12.643	-0.00145037	0.00398235
12.7869	12.6434	-0.000355162	0.00300575
12.7873	12.6439	-0.00011562	0.00218173
12.7878	12.6444	0.000467298	0.00296372
12.7883	12.6448	5.97689e-05	0.00392163
12.7887	12.6453	-0.00149719	0.00393376
12.7892	12.6458	-0.000272069	0.00302706
12.7897	12.6463	-0.000166236	0.00216927
12.7902	12.6468	0.000534785	0.00295142
12.7906	12.6473	3.06265e-05	0.00413648
12.7911	12.6477	-0.00151353	0.00385485
12.7916	12.6482	-0.000398108	0.00303206
12.7921	12.6487	7.89059e-05	0.00221115
12.7925	12.6491	0.000206479	0.00294643
12.793	12.6496	9.75791e-05	0.0040661
12.7935	12.6501	-0.00144811	0.00384239
12.7939	12.6506	-0.000565293	0.00281925
12.7944	12.651	7.23068e-05	0.00213609
12.7949	12.6515	0.000312383	0.00294766
12.7954	12.652	0.000100914	0.00417025
12.7958	12.6525	-0.00150459	0.0037748
12.7963	12.6529	-0.000387639	0.00291857
12.7968	12.6534	0.000134925	0.0022141
12.7972	12.6539	0.000330254	0.00294283
12.7977	12.6543	0.000192943	0.00427177
12.7982	12.6548	-0.00161889	0.00384846
12.7987	12.6553	-0.00040271	0.00286891
12.7991	12.6558	0.000151797	0.00228088
12.7996	12.6562	0.00034479	0.00302846
12.8001	12.6567	0.000127524	0.00427022
12.8006	12.6572	-0.0014141	0.00382822
12.801	12.6577	-0.00033829	0.00289366
12.8015	12.6582	0.000140062	0.00222328
12.802	12.6586	9.86491e-05	0.00298846
12.8024	12.6591	0.000228488	0.00426506
12.8029	12.6595	-0.00139542	0.00361632
12.8034	12.66	-0.000326019	0.002903
12.8039	12.6605	0.000322318	0.00232931
12.8043	12.661	0.000143397	0.00304607
12.8048	12.6614	9.32452e-05	0.0043334
12.8053	12.6619	-0.0014279	0.00378495
12.8057	12.6624	-0.000410646	0.00275525
12.8062	12.6628	0.000376268	0.00233087
12.8067	12.6633	6.43703e-05	0.0030414
12.8072	12.6638	6.13027e-05	0.00431987
12.8076	12.6642	-0.00140489	0.00374619
12.8081	12.6647	-0.000391242	0.00271182
12.8086	12.6652	0.000326919	0.00228818
12.8091	12.6657	-5.24666e-05	0.00313202
12.8095	12.6661	2.269e-05	0.00422458
12.81	12.6666	-0.001331	0.00365868
12.8105	12.6671	-0.000371499	0.00276271
12.8109	12.6676	0.000357863	0.00239765
12.8114	12.668	0.000104517	0.00313932
12.8119	12.6685	5.55062e-06	0.00432299
12.8124	12.669	-0.00135428	0.00367425
12.8128	12.6694	-0.000439254	0.00268863
12.8133	12.6699	0.000459629	0.00227933
12.8138	12.6704	7.38407e-05	0.00313465
12.8142	12.6708	-2.33242e-05	0.00432438
12.8147	12.6713	-0.00133127	0.00359222
12.8152	12.6718	-0.000414178	0.00265889
12.8157	12.6722	0.000637283	0.00237462
12.8161	12.6727	-7.45116e-06	0.00319177
12.8166	12.6732	-3.45959e-05	0.00428857
12.8171	12.6736	-0.00115868	0.00358271
12.8176	12.6741	-0.000545158	0.00276567
12.818	12.6746	0.000669761	0.00243518
12.8185	12.6751	-4.8864e-05	0.00318587
12.819	12.6756	-0.000193042	0.00437109
12.8194	12.676	-0.00113774	0.00361058
12.8199	12.6765	-0.000448724	0.00263537
12.8204	12.677	0.000747717	0.00245633
12.8209	12.6775	-4.25324e-05	0.00336319
12.8213	12.678	-0.000151362	0.0043348
12.8218	12.6784	-0.00106765	0.0036182
12.8223	12.6789	-0.000492937	0.00259194
12.8227	12.6794	0.000772793	0.00247255
12.8232	12.6798	1.21669e-06	0.00326838
12.8237	12.6803	-0.000313749	0.00432562
12.8242	12.6808	-0.00103678	0.00356854
12.8246	12.6813	-0.000480666	0.00248263
12.8251	12.6817	0.000817809	0.00250599
12.8256	12.6822	-6.44695e-05	0.00336287
12.8261	12.6827	-0.000401443	0.00428825
12.8265	12.6831	-0.00101757	0.00356526
12.827	12.6836	-0.000460192	0.00253713
12.8275	12.6841	0.000743918	0.00264611
12.8279	12.6845	9.42073e-06	0.00334451
12.8284	12.685	-0.000382503	0.00440255
12.8289	12.6855	-0.000923473	0.00355608
12.8294	12.686	-0.000594436	0.00234267
12.8298	12.6865	0.000930508	0.0024945
12.8303	12.6869	-7.21386e-05	0.00346799
12.8308	12.6874	-0.000381504	0.00429947
12.8312	12.6879	-0.000945214	0.00354223
12.8317	12.6884	-0.00068493	0.00234005
12.8322	12.6888	0.000944847	0.00257686
12.8327	12.6893	-7.88088e-05	0.00341629
12.8331	12.6898	-0.000634582	0.00432857
12.8336	12.6902	-0.000916072	0.00360542
12.8341	12.6907	-0.00060931	0.0022876
12.8346	12.6912	0.000929242	0.00260456
12.835	12.6916	-9.97471e-05	0.00347389
12.8355	12.6921	-0.000625914	0.00427768
12.836	12.6926	-0.00085265	0.0034253
12.8364	12.693	-0.000682933	0.00234923
12.8369	12.6935	0.000922108	0.00268675
12.8374	12.694	-0.000148561	0.00352855
12.8379	12.6944	-0.000612645	0.00423253
12.8383	12.6949	-0.000968952	0.00356838
12.8388	12.6954	-0.000624113	0.00230424
12.8393	12.6959	0.000941512	0.00270076
12.8397	12.6964	-8.16089e-05	0.00356247
12.8402	12.6968	-0.00067266	0.00424498
12.8407	12.6973	-0.000813306	0.00361074
12.8412	12.6978	-0.000673462	0.00222844
12.8416	12.6982	0.00110156	0.00269314
12.8421	12.6987	-0.000126357	0.00360123
12.8426	12.6992	-0.000778029	0.00426259
12.8431	12.6996	-0.000718407	0.00348463
12.8435	12.7001	-0.000756288	0.00221566
12.844	12.7006	0.00106575	0.00272133
12.8445	12.7011	-0.000169571	0.00352028
12.8449	12.7015	-0.000851919	0.00409928
12.8454	12.702	-0.000578634	0.00349692
12.8459	12.7025	-0.000666792	0.00216863
12.8464	12.7029	0.000955584	0.00280057
12.8468	12.7034	-0.000114086	0.00357632
12.8473	12.7039	-0.000916607	0.00417148
12.8478	12.7043	-0.000677065	0.00339916
12.8482	12.7048	-0.000563296	0.00216584
12.8487	12.7053	0.0010098	0.00279885
12.8492	12.7058	-6.24007e-05	0.00374087
12.8497	12.7063	-0.000924008	0.004214
12.8501	12.7068	-0.000528482	0.00333951
12.8506	12.7072	-0.000698003	0.0022513
12.8511	12.7077	0.000857884	0.00271756
12.8516	12.7082	-7.32086e-05	0.00359828
12.852	12.7087	-0.000953418	0.00412977
12.8525	12.7091	-0.000524148	0.0032883
12.853	12.7096	-0.000564027	0.00214839
12.8534	12.7101	0.000820341	0.00272412
12.8539	12.7105	-0.000146564	0.00359361
12.8544	12.711	-0.0011022	0.0041192
12.8549	12.7115	-0.000500677	0.00334418
12.8553	12.712	-0.000558159	0.00213781
12.8558	12.7124	0.000818807	0.00286547
12.8563	12.7129	-5.6533e-05	0.0037121
12.8567	12.7133	-0.00116228	0.00410346
12.8572	12.7138	-0.000391438	0.00325249
12.8577	12.7143	-0.000487604	0.00214543
12.8582	12.7148	0.000803469	0.00289661
12.8586	12.7152	-8.23402e-05	0.00382371
12.8591	12.7157	-0.00114614	0.00411952
12.8596	12.7162	-0.00051548	0.00323692
12.8601	12.7167	-0.000463063	0.00224803
12.8605	12.7172	0.000688166	0.00278918
12.861	12.7176	-3.27946e-05	0.00383461
12.8615	12.7181	-0.00119836	0.00401316
12.8619	12.7186	-0.00044159	0.00313121
12.8624	12.719	-0.000270267	0.00222983
12.8629	12.7195	0.000673096	0.00279418
12.8634	12.72	4.80334e-05	0.00385313
12.8638	12.7204	-0.00114695	0.0040071
12.8643	12.7209	-0.000490137	0.00317153
12.8648	12.7214	-0.000255464	0.00220164
12.8652	12.7219	0.000599473	0.00292184
12.8657	12.7223	-0.000130958	0.00398702
12.8662	12.7228	-0.00121623	0.00395728
12.8667	12.7232	-0.000348491	0.00322495
12.8671	12.7237	-0.000228854	0.0022141
12.8676	12.7242	0.000555991	0.00287186
12.8681	12.7246	0.00012599	0.00394187
12.8686	12.7251	-0.00133894	0.00393065
12.869	12.7256	-0.00044719	0.00308859
12.8695	12.7261	-0.00020945	0.00225179
12.87	12.7266	0.000490305	0.00286842
12.8704	12.727	-4.96168e-08	0.00404398
12.8709	12.7275	-0.00137322	0.00387632
12.8714	12.728	-0.000360031	0.00302411
12.8719	12.7285	-0.000131957	0.00224057
12.8723	12.7289	0.00051918	0.00283106
12.8728	12.7294	9.50465e-05	0.00404758
12.8733	12.7298	-0.00137088	0.00381109
12.8737	12.7303	-0.000489138	0.00316284
12.8742	12.7308	-1.30514e-05	0.0023008
12.8747	12.7313	0.000408478	0.00286112
12.8752	12.7318	3.36942e-05	0.00423269
12.8756	12.7322	-0.00133173	0.00386075
12.8761	12.7327	-0.000509077	0.00302846
12.8766	12.7332	9.17113e-05	0.00222081
12.8771	12.7336	0.000437621	0.00286515
12.8775	12.7341	0.000218554	0.00419409
12.878	12.7346	-0.00134814	0.00390746
12.8785	12.7351	-0.000407846	0.0030677
12.8789	12.7355	-2.20579e-05	0.00216288
12.8794	12.736	0.00033539	0.0029293
12.8799	12.7365	0.000189411	0.00412199
12.8804	12.737	-0.00145091	0.00379676
12.8808	12.7375	-0.00039991	0.00300124
12.8813	12.7379	0.000136459	0.00224024
12.8818	12.7384	0.000336122	0.00293446
12.8822	12.7389	0.000217484	0.00427719
12.8827	12.7393	-0.00145371	0.00378446
12.8832	12.7398	-0.000340626	0.00290627
12.8837	12.7403	0.00014593	0.00227498
12.8841	12.7408	0.000174537	0.00299781
12.8846	12.7412	0.000230557	0.00418786
12.8851	12.7417	-0.00156214	0.00376938
12.8856	12.7422	-0.000378169	0.0027968
12.886	12.7426	0.00019041	0.00230112
12.8865	12.7431	8.55761e-05	0.00303394
12.887	12.7436	0.000175339	0.00424063
12.8874	12.744	-0.00151786	0.00361009
12.8879	12.7445	-0.000344158	0.00283138
12.8884	12.745	0.000338191	0.00221877
12.8889	12.7455	0.000147196	0.00300747
12.8893	12.746	5.28312e-05	0.00421508
12.8898	12.7464	-0.00141183	0.00374103
12.8903	12.7469	-0.000403976	0.00278623
12.8907	12.7474	0.000228755	0.00232603
12.8912	12.7479	0.000184007	0.00303238
12.8917	12.7483	0.000135193	0.00431021
12.8922	12.7488	-0.0014343	0.00369497
12.8926	12.7493	-0.000447725	0.00279525
12.8931	12.7497	0.000300113	0.00224024
12.8936	12.7502	8.58436e-05	0.00311318
12.8941	12.7506	0.000104249	0.00424031
12.8945	12.7511	-0.00131566	0.00366195
12.895	12.7516	-0.000379435	0.00278156
12.8955	12.7521	0.000376536	0.00241945
12.8959	12.7525	0.000138796	0.00317325
12.8964	12.753	4.59646e-05	0.00436175
12.8969	12.7535	-0.00134301	0.00368949
12.8974	12.7539	-0.000415248	0.0026897
12.8978	12.7544	0.000466228	0.00234627
12.8983	12.7549	8.88573e-06	0.00307066
12.8988	12.7553	0.000108851	0.00431177
