# 1304     AichiSR QXAFS
# Start     : 8.9544
# End       : 9.0544
# Dir       : Backward
# Points    : 300
# ScanTime  : 1.01549
# Date      : 13.04.24 00:27
# Ring Cur. : 0.9[mA]
12.7557	12.6124	2.44913e-05	0.0040493
12.7562	12.6129	-0.00135167	0.00384207
12.7566	12.6133	-0.000305812	0.00303378
12.7571	12.6138	0.000176606	0.00218608
12.7576	12.6143	0.000407943	0.00282155
12.7581	12.6147	0.000140793	0.00418426
12.7585	12.6152	-0.00150766	0.00368359
12.759	12.6157	-0.000394577	0.00297724
12.7595	12.6162	3.70293e-05	0.0021842
12.7599	12.6166	0.000439689	0.002898
12.7604	12.6171	0.000125188	0.0041192
12.7609	12.6176	-0.00144017	0.00374758
12.7614	12.6181	-0.000263865	0.00297166
12.7618	12.6185	8.02434e-05	0.0022082
12.7623	12.619	0.000276571	0.00291046
12.7628	12.6195	0.000259431	0.00424638
12.7632	12.6199	-0.00142763	0.00362287
12.7637	12.6204	-0.000312679	0.00294315
12.7642	12.6209	0.000102716	0.00225893
12.7647	12.6214	0.000333322	0.00292447
12.7651	12.6218	0.000179406	0.00425744
12.7656	12.6223	-0.00150819	0.00379864
12.7661	12.6228	-0.000281004	0.0030087
12.7666	12.6232	0.000277837	0.00223745
12.767	12.6237	0.000315915	0.00293242
12.7675	12.6242	0.000165334	0.00406717
12.768	12.6247	-0.00134354	0.0037697
12.7684	12.6251	-0.000307614	0.00293569
12.7689	12.6256	0.000199613	0.00228744
12.7694	12.6261	0.000308049	0.00298379
12.7699	12.6266	0.00018374	0.00426194
12.7703	12.6271	-0.00136655	0.00371677
12.7708	12.6275	-0.000428053	0.00293881
12.7713	12.628	0.000234623	0.00226081
12.7717	12.6285	0.000250496	0.00294831
12.7722	12.6289	0.000207817	0.00426227
12.7727	12.6294	-0.0015248	0.0036758
12.7732	12.6299	-0.000413714	0.00287218
12.7736	12.6303	0.000348392	0.0022876
12.7741	12.6308	0.000220819	0.00291717
12.7746	12.6313	0.000274769	0.00411157
12.7751	12.6318	-0.00150125	0.00360779
12.7755	12.6322	-0.000307346	0.00271837
12.776	12.6327	0.00036373	0.00218624
12.7765	12.6332	0.000113987	0.00305836
12.7769	12.6336	0.000102181	0.00410142
12.7774	12.6341	-0.0014195	0.00369711
12.7779	12.6346	-0.000220918	0.00276443
12.7784	12.635	0.000418412	0.00230907
12.7788	12.6355	8.94462e-05	0.00304575
12.7793	12.636	0.000212882	0.00415828
12.7798	12.6365	-0.00131286	0.00359861
12.7802	12.637	-0.000407311	0.00264627
12.7807	12.6374	0.000423085	0.00227917
12.7812	12.6379	0.000188074	0.00314555
12.7817	12.6384	1.78211e-05	0.00424858
12.7821	12.6388	-0.00138495	0.00358567
12.7826	12.6393	-0.000276135	0.00264471
12.7831	12.6398	0.000482369	0.00223246
12.7836	12.6402	5.18323e-05	0.00314211
12.784	12.6407	0.000148462	0.0042875
12.7845	12.6412	-0.00144631	0.00360075
12.785	12.6416	-0.000415515	0.0026307
12.7854	12.6421	0.000547056	0.00229785
12.7859	12.6426	5.5435e-05	0.00314711
12.7864	12.643	-5.98681e-05	0.00427489
12.7869	12.6435	-0.00139262	0.00370973
12.7873	12.644	-0.00034109	0.00265062
12.7878	12.6444	0.000561395	0.00234316
12.7883	12.6449	-6.71985e-06	0.00317685
12.7887	12.6454	-6.75372e-05	0.00429636
12.7892	12.6459	-0.00122057	0.00368515
12.7897	12.6464	-0.000486338	0.00266356
12.7902	12.6468	0.000591536	0.00240527
12.7906	12.6473	7.38407e-05	0.00315178
12.7911	12.6478	-1.87228e-05	0.00422597
12.7916	12.6483	-0.00120776	0.00360419
12.7921	12.6487	-0.000419047	0.00258883
12.7925	12.6492	0.000536319	0.00244404
12.793	12.6497	0.00012879	0.00308811
12.7935	12.6501	-9.56807e-05	0.00429792
12.7939	12.6506	-0.00118809	0.00368047
12.7944	12.6511	-0.000592171	0.00257793
12.7949	12.6516	0.000750517	0.00247378
12.7954	12.6521	4.81931e-06	0.00320004
12.7958	12.6525	-0.000221988	0.00425153
12.7963	12.653	-0.00114794	0.00353584
12.7968	12.6535	-0.000411913	0.00267945
12.7972	12.6539	0.000753656	0.00243985
12.7977	12.6544	-3.22596e-05	0.00325109
12.7982	12.6549	-0.000170302	0.00424375
12.7987	12.6554	-0.00109399	0.00366958
12.7991	12.6558	-0.000399375	0.00244731
12.7996	12.6563	0.000889363	0.00249681
12.8001	12.6568	-7.52062e-05	0.003222
12.8006	12.6573	-0.000243925	0.00424251
12.801	12.6577	-0.000996365	0.00351732
12.8015	12.6582	-0.000495006	0.00252
12.802	12.6587	0.00076079	0.0025186
12.8024	12.6591	1.96224e-05	0.00321905
12.8029	12.6596	-0.000272069	0.00431832
12.8034	12.6601	-0.000926808	0.0035796
12.8039	12.6605	-0.000475601	0.00243019
12.8043	12.661	0.000878893	0.00238971
12.8048	12.6615	-9.98377e-06	0.00335401
12.8053	12.662	-0.000406045	0.00423859
12.8057	12.6624	-0.000901268	0.00354707
12.8062	12.6629	-0.000627983	0.00233554
12.8067	12.6634	0.000846416	0.00245107
12.8072	12.6638	-0.000139162	0.00332287
12.8076	12.6643	-0.000347493	0.00425727
12.8081	12.6648	-0.00101811	0.00359624
12.8086	12.6652	-0.00046433	0.00229318
12.8091	12.6657	0.000886562	0.00252966
12.8095	12.6662	-0.000129692	0.00332164
12.81	12.6667	-0.000396842	0.00412231
12.8105	12.6672	-0.000863387	0.00346439
12.8109	12.6676	-0.000479935	0.00235062
12.8114	12.6681	0.000864554	0.00262447
12.8119	12.6686	-6.4202e-05	0.00332271
12.8124	12.669	-0.000443855	0.00419951
12.8128	12.6695	-0.000922938	0.00345505
12.8133	12.67	-0.000618245	0.00215478
12.8138	12.6704	0.000988525	0.00256982
12.8142	12.6709	-2.73907e-05	0.00338466
12.8147	12.6714	-0.000509077	0.00412542
12.8152	12.6718	-0.000835047	0.00338547
12.8157	12.6723	-0.000532085	0.00211585
12.8161	12.6728	0.00105762	0.00259006
12.8166	12.6732	-0.000124556	0.00342579
12.8171	12.6737	-0.000592171	0.00421728
12.8176	12.6742	-0.000730481	0.00339851
12.818	12.6747	-0.000647655	0.00224835
12.8185	12.6751	0.0010072	0.002667
12.819	12.6756	-3.86623e-05	0.00351593
12.8194	12.6761	-0.000633316	0.00412854
12.8199	12.6766	-0.000625379	0.00353429
12.8204	12.6771	-0.00056376	0.00214839
12.8209	12.6775	0.000997532	0.00257589
12.8213	12.678	-0.000151165	0.00350519
12.8218	12.6785	-0.000702872	0.00427161
12.8223	12.679	-0.000753488	0.00346955
12.8227	12.6794	-0.000621045	0.00225957
12.8232	12.6799	0.00105195	0.00273829
12.8237	12.6804	-0.000108219	0.00355936
12.8242	12.6808	-0.00065379	0.00416418
12.8246	12.6813	-0.000675264	0.00346906
12.8251	12.6818	-0.000507276	0.00234611
12.8256	12.6823	0.00102387	0.00270199
12.8261	12.6827	1.11508e-05	0.00357788
12.8265	12.6832	-0.00071541	0.00410609
12.827	12.6836	-0.000717943	0.00337286
12.8275	12.6841	-0.000609774	0.00223262
12.8279	12.6846	0.00097679	0.00266012
12.8284	12.6851	-0.000104152	0.00364467
12.8289	12.6856	-0.000823776	0.00418115
12.8294	12.686	-0.000548956	0.00336819
12.8298	12.6865	-0.000620047	0.00214527
12.8303	12.687	0.00102487	0.00271494
12.8308	12.6875	-2.9192e-05	0.00357632
12.8312	12.688	-0.000817177	0.00413412
12.8317	12.6884	-0.000660924	0.00338654
12.8322	12.6889	-0.000646585	0.00220164
12.8327	12.6893	0.000837213	0.0027691
12.8331	12.6898	-2.79257e-05	0.00362287
12.8336	12.6903	-0.000697736	0.00407281
12.8341	12.6908	-0.000522882	0.00344087
12.8346	12.6912	-0.000513946	0.00224336
12.835	12.6917	0.000900367	0.00286236
12.8355	12.6922	-5.6533e-05	0.0036313
12.836	12.6926	-0.000920673	0.00410674
12.8364	12.6931	-0.000591636	0.0033976
12.8369	12.6935	-0.000633316	0.00221984
12.8374	12.694	0.00086129	0.00278312
12.8379	12.6945	-0.00016497	0.00361337
12.8383	12.695	-0.000834245	0.00404463
12.8388	12.6954	-0.0004822	0.00327133
12.8393	12.6959	-0.000560228	0.00211446
12.8397	12.6964	0.000923106	0.00280663
12.8402	12.6969	-0.000109217	0.00373013
12.8407	12.6974	-0.000945481	0.00404586
12.8412	12.6978	-0.000500142	0.0033028
12.8416	12.6983	-0.00050881	0.00219418
12.8421	12.6988	0.000783797	0.00283654
12.8426	12.6992	5.33662e-05	0.00364655
12.8431	12.6997	-0.00109399	0.00396506
12.8435	12.7001	-0.000450525	0.00331525
12.844	12.7006	-0.000439789	0.00210496
12.8445	12.7011	0.000869423	0.00286407
12.8449	12.7016	4.26295e-05	0.00384755
12.8454	12.7021	-0.00112087	0.00407249
12.8459	12.7025	-0.000279738	0.00327321
12.8464	12.703	-0.000427518	0.00206963
12.8468	12.7035	0.000801936	0.00280647
12.8473	12.7039	4.90322e-05	0.00374119
12.8478	12.7044	-0.00111067	0.00405364
12.8482	12.7049	-0.000464062	0.00318275
12.8487	12.7054	-0.000424914	0.0021129
12.8492	12.7058	0.000800669	0.00272723
12.8497	12.7063	1.52885e-05	0.00386107
12.8501	12.7068	-0.00124691	0.00392877
12.8506	12.7073	-0.000437256	0.00312982
12.8511	12.7078	-0.000248598	0.00215059
12.8516	12.7082	0.000735447	0.00271789
12.852	12.7087	-3.12608e-05	0.00386403
12.8525	12.7092	-0.00126171	0.00387632
12.853	12.7096	-0.000399642	0.00311162
12.8534	12.7101	-0.000275404	0.00208504
12.8539	12.7106	0.000586935	0.00285522
12.8544	12.7111	8.76449e-05	0.00393114
12.8549	12.7115	-0.00127912	0.00386591
12.8553	12.712	-0.000318083	0.00310663
12.8558	12.7125	-0.000214783	0.0021034
12.8563	12.7129	0.000601738	0.00284711
12.8567	12.7134	2.24225e-05	0.00396351
12.8572	12.7139	-0.00128319	0.00389049
12.8577	12.7143	-0.000421383	0.00309122
12.8582	12.7148	-0.00027387	0.0022454
12.8586	12.7153	0.000457293	0.0028812
12.8591	12.7158	5.0031e-05	0.00394343
12.8596	12.7163	-0.00134588	0.00381576
12.8601	12.7167	-0.000332155	0.0030319
12.8605	12.7172	-0.00023606	0.00211462
12.861	12.7177	0.000501506	0.00287358
12.8615	12.7182	2.85577e-05	0.00395073
12.8619	12.7186	-0.00127065	0.00392426
12.8624	12.7191	-0.000387372	0.00311162
12.8629	12.7195	-9.54132e-05	0.00216895
12.8634	12.72	0.000576466	0.00282638
12.8638	12.7205	5.82351e-05	0.00401848
12.8643	12.721	-0.00139289	0.00390107
12.8648	12.7214	-0.000453325	0.00300264
12.8652	12.7219	-6.08669e-05	0.00218157
12.8657	12.7224	0.000499775	0.00288775
12.8662	12.7228	6.64391e-05	0.00405536
12.8667	12.7233	-0.00138982	0.00373964
12.8671	12.7238	-0.000372034	0.00303828
12.8676	12.7242	-5.83343e-05	0.00213765
12.8681	12.7247	0.000410012	0.00288399
12.8686	12.7252	2.52226e-05	0.00401316
12.869	12.7257	-0.00150793	0.00371768
12.8695	12.7261	-0.000392972	0.00292635
12.87	12.7266	-2.87282e-05	0.00220632
12.8704	12.7271	0.000502576	0.00287014
12.8709	12.7276	0.000211883	0.00412027
12.8714	12.728	-0.00141636	0.00372374
12.8719	12.7285	-0.000356428	0.00291513
12.8723	12.729	7.99759e-05	0.00221394
12.8728	12.7294	0.000332323	0.00289333
12.8733	12.7299	0.000255365	0.00408494
12.8737	12.7304	-0.00147545	0.00375569
12.8742	12.7309	-0.000349026	0.00283089
12.8747	12.7313	0.000124724	0.00231079
12.8752	12.7318	0.000308513	0.00292447
12.8756	12.7323	0.000216485	0.00410502
12.8761	12.7327	-0.00150026	0.00377593
12.8766	12.7332	-0.000233456	0.00286456
12.8771	12.7337	7.63733e-05	0.00229785
12.8775	12.7342	0.000322585	0.00299297
12.878	12.7346	0.000177872	0.00411436
12.8785	12.7351	-0.00148492	0.00362754
12.8789	12.7356	-0.00039604	0.00288555
12.8794	12.7361	0.000222888	0.00219805
12.8799	12.7366	0.000233357	0.0029774
12.8804	12.737	0.00024536	0.00418131
12.8808	12.7375	-0.00132307	0.00356682
12.8813	12.738	-0.00053822	0.00281253
12.8818	12.7385	0.000254295	0.00215371
12.8822	12.7389	0.000204214	0.00294085
12.8827	12.7394	0.000281904	0.00426973
12.8832	12.7399	-0.00132107	0.00367843
12.8837	12.7403	-0.000357962	0.00281318
12.8841	12.7408	0.00031365	0.00219697
12.8846	12.7413	0.000137993	0.00305321
12.8851	12.7418	0.000141863	0.00417353
12.8856	12.7422	-0.00134661	0.00373964
12.886	12.7427	-0.000492937	0.00273797
12.8865	12.7432	0.00025763	0.0023008
12.887	12.7436	0.000124189	0.00287841
12.8874	12.7441	0.000213952	0.00426334
12.8879	12.7446	-0.00144684	0.00375397
12.8884	12.745	-0.000327286	0.00270248
12.8889	12.7455	0.000341793	0.0022563
12.8893	12.746	0.000212418	0.00295797
12.8898	12.7465	8.2241e-05	0.00426383
12.8903	12.747	-0.00136601	0.00360886
12.8907	12.7474	-0.000288405	0.0028608
12.8912	12.7479	0.000480835	0.00225474
12.8917	12.7484	8.83762e-05	0.00310974
12.8922	12.7488	7.25743e-05	0.0042671
12.8926	12.7493	-0.00140562	0.00363565
12.8931	12.7498	-0.000423719	0.00275074
12.8936	12.7502	0.000477767	0.00233071
12.8941	12.7507	0.000120854	0.00311924
12.8945	12.7512	9.96479e-05	0.00416778
12.895	12.7517	-0.00135428	0.00366614
12.8955	12.7521	-0.000422649	0.00268535
12.8959	12.7526	0.000493373	0.00246599
12.8964	12.753	0.000160465	0.00308327
12.8969	12.7535	9.098e-05	0.004219
12.8974	12.754	-0.00133894	0.00360386
12.8978	12.7544	-0.000345495	0.00263881
12.8983	12.7549	0.000513045	0.00235454
12.8988	12.7554	-2.11842e-06	0.00303861
