# 1304     AichiSR QXAFS
# Start     : 8.9544
# End       : 9.0544
# Dir       : Backward
# Points    : 300
# ScanTime  : 1.01549
# Date      : 13.04.23 22:39
# Ring Cur. : 0.9[mA]
12.7557	12.6119	-6.22044e-05	0.00339154
12.7562	12.6124	-0.000832978	0.00399604
12.7566	12.6129	-0.000705672	0.00333361
12.7571	12.6133	-0.000583164	0.00210028
12.7576	12.6138	0.000902899	0.00267478
12.7581	12.6143	-0.000171836	0.00357026
12.7585	12.6147	-0.000726878	0.0040865
12.759	12.6152	-0.000607509	0.00333705
12.7595	12.6157	-0.000645854	0.00208955
12.7599	12.6162	0.000933112	0.0026838
12.7604	12.6166	-0.000149899	0.00351544
12.7609	12.6171	-0.000726147	0.00406921
12.7614	12.6176	-0.000626646	0.00331697
12.7618	12.6181	-0.000597771	0.00209685
12.7623	12.6185	0.00104861	0.00266233
12.7628	12.619	-9.38794e-05	0.00354019
12.7632	12.6195	-0.000871591	0.00413944
12.7637	12.6199	-0.00054102	0.00334279
12.7642	12.6204	-0.000633316	0.00220927
12.7647	12.6209	0.000960453	0.00271322
12.7651	12.6214	-0.000145565	0.00359066
12.7656	12.6218	-0.000988428	0.00401644
12.7661	12.6223	-0.000496005	0.00326371
12.7666	12.6228	-0.000774961	0.00211757
12.767	12.6232	0.000852284	0.00270731
12.7675	12.6237	-0.000112553	0.00364934
12.768	12.6242	-0.00112394	0.00400291
12.7684	12.6247	-0.000513144	0.00333705
12.7689	12.6251	-0.000655057	0.00210512
12.7694	12.6256	0.000924908	0.00267258
12.7699	12.6261	-0.000138627	0.00366072
12.7703	12.6266	-0.00106232	0.00405708
12.7708	12.6271	-0.000447921	0.00330263
12.7713	12.6275	-0.00054662	0.00207726
12.7717	12.628	0.000878358	0.00271665
12.7722	12.6285	-0.000142694	0.00375365
12.7727	12.629	-0.00106945	0.00395293
12.7732	12.6294	-0.000475334	0.00322044
12.7736	12.6299	-0.000435187	0.00205234
12.7741	12.6303	0.000834145	0.00269298
12.7746	12.6308	-1.33189e-05	0.00364171
12.7751	12.6313	-0.00111573	0.00396039
12.7755	12.6318	-0.000550223	0.00306336
12.776	12.6322	-0.000530016	0.00210045
12.7765	12.6327	0.000727314	0.00276476
12.7769	12.6332	-8.82792e-05	0.00373137
12.7774	12.6336	-0.00117149	0.00407684
12.7779	12.6341	-0.000476333	0.0031317
12.7784	12.6346	-0.00044719	0.00210372
12.7788	12.6351	0.000736517	0.00280803
12.7793	12.6355	-1.81878e-05	0.00370088
12.7798	12.636	-0.00114127	0.00390499
12.7802	12.6365	-0.000445656	0.00311441
12.7807	12.637	-0.000423916	0.0020816
12.7812	12.6374	0.000688166	0.00273034
12.7817	12.6379	2.14237e-05	0.00380519
12.7821	12.6384	-0.00118096	0.00397768
12.7826	12.6389	-0.000524148	0.00304763
12.7831	12.6393	-0.0002644	0.00227605
12.7836	12.6398	0.000582066	0.00276427
12.784	12.6402	4.62321e-05	0.00394499
12.7845	12.6407	-0.00116048	0.00382199
12.785	12.6412	-0.00053822	0.00313884
12.7854	12.6417	-0.000352094	0.00210732
12.7859	12.6421	0.000695835	0.00283449
12.7864	12.6426	9.91129e-05	0.00382682
12.7869	12.643	-0.00123564	0.00383863
12.7873	12.6435	-0.000458462	0.00319381
12.7878	12.644	-0.000225787	0.00210839
12.7883	12.6444	0.000530184	0.00283433
12.7887	12.6449	-1.13213e-05	0.00381002
12.7892	12.6454	-0.0012093	0.00380503
12.7897	12.6459	-0.000232457	0.00314882
12.7902	12.6464	-0.00030608	0.00213765
12.7906	12.6469	0.000543257	0.00277844
12.7911	12.6473	0.000133392	0.0039744
12.7916	12.6478	-0.00138135	0.00377716
12.7921	12.6483	-0.000315015	0.00299748
12.7925	12.6488	-0.000192043	0.00220632
12.793	12.6492	0.000530915	0.00281613
12.7935	12.6497	0.000130592	0.00390418
12.7939	12.6502	-0.00145144	0.00386075
12.7944	12.6506	-0.000432922	0.00285318
12.7949	12.6511	-0.000276938	0.00211446
12.7954	12.6516	0.000437888	0.00291062
12.7958	12.6521	9.35127e-05	0.00402734
12.7963	12.6525	-0.00135761	0.00376954
12.7968	12.653	-0.000387639	0.0030087
12.7972	12.6535	-8.77442e-05	0.00210684
12.7977	12.6539	0.000428685	0.00274779
12.7982	12.6544	0.000127791	0.00397408
12.7987	12.6549	-0.00138722	0.00376906
12.7991	12.6554	-0.000365898	0.00293086
12.7996	12.6559	-7.34049e-05	0.0020503
12.8001	12.6563	0.000331788	0.00282359
12.8006	12.6568	0.000173538	0.00409879
12.801	12.6573	-0.0014307	0.00373201
12.8015	12.6578	-0.000304546	0.00283761
12.802	12.6582	-5.09328e-05	0.00210528
12.8024	12.6587	0.000481834	0.00274559
12.8029	12.6592	0.000104249	0.00398874
12.8034	12.6596	-0.00149926	0.00370555
12.8039	12.6601	-0.000348759	0.00296183
12.8043	12.6606	6.69029e-05	0.00217625
12.8048	12.661	0.000355062	0.00283621
12.8053	12.6615	0.000262499	0.0040879
12.8057	12.662	-0.00140823	0.00371145
12.8062	12.6625	-0.000250595	0.00282982
12.8067	12.6629	0.000118054	0.00212192
12.8072	12.6634	0.000335123	0.00281909
12.8076	12.6638	9.4779e-05	0.00418287
12.8081	12.6643	-0.00156287	0.00373325
12.8086	12.6648	-0.000347493	0.00298551
12.8091	12.6653	0.000195743	0.00211725
12.8095	12.6658	0.000292176	0.00285006
12.81	12.6662	0.000210617	0.00417369
12.8105	12.6667	-0.00141303	0.00373153
12.8109	12.6672	-0.000379168	0.00279213
12.8114	12.6677	0.00025203	0.00205873
12.8119	12.6681	0.000360395	0.00284834
12.8124	12.6686	0.000146732	0.00411453
12.8128	12.6691	-0.00144477	0.00375676
12.8133	12.6695	-0.000230923	0.00275477
12.8138	12.67	0.000221086	0.00219107
12.8142	12.6704	0.000405411	0.0028921
12.8147	12.6709	0.000173538	0.00419098
12.8152	12.6714	-0.00146011	0.00364671
12.8157	12.6719	-0.000338825	0.00288071
12.8161	12.6723	0.000122923	0.00209626
12.8166	12.6728	0.000205748	0.00288448
12.8171	12.6733	0.000221621	0.00425867
12.8176	12.6737	-0.00158055	0.00369465
12.818	12.6742	-0.000305081	0.00275214
12.8185	12.6747	0.000354795	0.00213158
12.819	12.6752	0.00022822	0.00297478
12.8194	12.6756	4.84972e-05	0.00414378
12.8199	12.6761	-0.00142563	0.00367768
12.8204	12.6766	-0.000259067	0.00276271
12.8209	12.6771	0.000344326	0.00214608
12.8213	12.6776	0.000206283	0.00292635
12.8218	12.6781	0.000211883	0.00419516
12.8223	12.6785	-0.00134301	0.00372267
12.8227	12.679	-0.000277205	0.0028644
12.8232	12.6794	0.000412616	0.00221378
12.8237	12.6799	0.000101449	0.00300403
12.8242	12.6804	0.000185809	0.00419393
12.8246	12.6809	-0.00135581	0.00363409
12.8251	12.6813	-0.000455929	0.00267897
12.8256	12.6818	0.000275037	0.00226999
12.8261	12.6823	0.000129058	0.00296012
12.8265	12.6827	0.000119587	0.0042453
12.827	12.6832	-0.00139209	0.00359828
12.8275	12.6837	-0.000293809	0.00273657
12.8279	12.6842	0.000427151	0.00232308
12.8284	12.6846	0.000261697	0.00293988
12.8289	12.6851	0.000135995	0.00417975
12.8294	12.6856	-0.00132	0.00354535
12.8298	12.6861	-0.000402977	0.00275091
12.8303	12.6866	0.000533787	0.00227031
12.8308	12.687	-2.02566e-05	0.0031281
12.8312	12.6875	3.49605e-05	0.0042635
12.8317	12.688	-0.00131053	0.00361959
12.8322	12.6885	-0.000244728	0.00255876
12.8327	12.6889	0.000495638	0.00226703
12.8331	12.6894	5.41687e-05	0.00319865
12.8336	12.6898	-7.24061e-05	0.00429915
12.8341	12.6903	-0.00130239	0.00357337
12.8346	12.6908	-0.00024446	0.00252016
12.835	12.6913	0.000442757	0.00229801
12.8355	12.6917	-1.13213e-05	0.00311269
12.836	12.6922	6.89717e-05	0.00422974
12.8364	12.6927	-0.00122463	0.00366072
12.8369	12.6931	-0.000369965	0.00250926
12.8374	12.6936	0.000543453	0.00230612
12.8379	12.6941	-8.77442e-05	0.00320267
12.8383	12.6945	-2.84973e-06	0.00419377
12.8388	12.695	-0.00121823	0.00344554
12.8393	12.6955	-0.000529552	0.0025812
12.8397	12.696	0.000670028	0.00238831
12.8402	12.6964	4.3432e-05	0.00322946
12.8407	12.6969	-6.44695e-05	0.00420638
12.8412	12.6974	-0.00119883	0.00357117
12.8416	12.6979	-0.000355162	0.00251082
12.8421	12.6983	0.000709907	0.00240184
12.8426	12.6988	3.16253e-05	0.00303329
12.8431	12.6993	-0.000127088	0.00420343
12.8435	12.6997	-0.00111934	0.00355764
12.844	12.7002	-0.000472266	0.00241011
12.8445	12.7007	0.000781265	0.00236061
12.8449	12.7011	-4.01961e-05	0.00324396
12.8454	12.7016	-0.000157033	0.00423424
12.8459	12.7021	-0.00116788	0.00347389
12.8464	12.7025	-0.00048327	0.00244887
12.8468	12.703	0.000684296	0.00249493
12.8473	12.7035	-5.72104e-06	0.00329641
12.8478	12.704	-0.000139626	0.00421868
12.8482	12.7044	-0.000963887	0.00359501
12.8487	12.7049	-0.000469466	0.00244747
12.8492	12.7054	0.000722178	0.00257326
12.8497	12.7059	3.4693e-05	0.00327461
12.8501	12.7064	-0.000262134	0.00417181
12.8506	12.7068	-0.00105492	0.00350831
12.8511	12.7073	-0.000421383	0.0024056
12.8516	12.7078	0.000818807	0.00253245
12.852	12.7083	-0.000159566	0.00333066
12.8525	12.7087	-0.00033162	0.00424547
12.853	12.7092	-0.000927807	0.00357321
12.8534	12.7097	-0.000539754	0.00223869
12.8539	12.7101	0.000802667	0.00245805
12.8544	12.7106	-6.93385e-05	0.00335229
12.8549	12.7111	-0.000459996	0.00421261
12.8553	12.7116	-0.000934477	0.00343325
12.8558	12.712	-0.000518013	0.00242707
12.8563	12.7125	0.00089243	0.0026838
12.8567	12.713	-0.000119419	0.00332475
12.8572	12.7134	-0.000437452	0.00422335
12.8577	12.7139	-0.000894866	0.00354191
12.8582	12.7144	-0.000561494	0.00232882
12.8586	12.7149	0.000863823	0.0026838
12.8591	12.7153	-9.00093e-05	0.00334139
12.8596	12.7158	-0.000433653	0.00425711
12.8601	12.7163	-0.000911738	0.00355592
12.8605	12.7168	-0.000654254	0.00231063
12.861	12.7172	0.000901901	0.00257686
12.8615	12.7177	-0.00010615	0.00328862
12.8619	12.7182	-0.000534617	0.00421196
12.8624	12.7187	-0.000922207	0.00354191
12.8629	12.7191	-0.000638185	0.00224196
12.8634	12.7196	0.000816007	0.00255146
12.8638	12.72	-0.000232725	0.0032402
12.8643	12.7205	-0.000559426	0.0041673
12.8648	12.721	-0.000937812	0.0034376
12.8652	12.7215	-0.000555359	0.00227949
12.8657	12.7219	0.000904968	0.00256687
12.8662	12.7224	-0.000138895	0.00337302
12.8667	12.7229	-0.000456393	0.00422023
12.8671	12.7233	-0.000956949	0.00341006
12.8676	12.7238	-0.000697468	0.00227793
12.8681	12.7243	0.000932844	0.00259366
12.8686	12.7247	-0.000149631	0.00337753
12.869	12.7252	-0.00063098	0.00418024
12.8695	12.7257	-0.000901268	0.00343604
12.87	12.7262	-0.000720475	0.00228835
12.8704	12.7266	0.000874024	0.00261841
12.8709	12.7271	-0.000112285	0.00333426
12.8714	12.7276	-0.000684467	0.00415935
12.8719	12.7281	-0.000820975	0.00351142
12.8723	12.7285	-0.000708472	0.00212348
12.8728	12.729	0.000972723	0.00263086
12.8733	12.7295	-0.000132225	0.00344866
12.8737	12.7299	-0.00078543	0.00410814
12.8742	12.7304	-0.000782898	0.0034026
12.8747	12.7309	-0.000756288	0.00216616
12.8752	12.7314	0.000955584	0.00262652
12.8756	12.7318	-0.000227856	0.00352323
12.8761	12.7323	-0.000804371	0.00402718
12.8766	12.7328	-0.000722009	0.00334746
12.8771	12.7332	-0.00066706	0.00220648
12.8775	12.7337	0.000808338	0.00261825
12.878	12.7342	-0.000138627	0.00346128
12.8785	12.7347	-0.000793367	0.00412199
12.8789	12.7352	-0.00073428	0.00335557
12.8794	12.7356	-0.000621045	0.0021311
12.8799	12.7361	0.000938979	0.0027596
12.8804	12.7366	-0.000232457	0.00347405
12.8808	12.7371	-0.00096469	0.00416714
12.8813	12.7376	-0.000620314	0.00338187
12.8818	12.738	-0.000757287	0.00210979
12.8822	12.7385	0.000927975	0.00264536
12.8827	12.739	4.55181e-06	0.00365401
12.8832	12.7394	-0.000848316	0.00409847
12.8837	12.7399	-0.000583503	0.00335401
12.8841	12.7404	-0.000709471	0.00208815
12.8846	12.7408	0.000953515	0.00268036
12.8851	12.7413	-9.54132e-05	0.00362024
12.8856	12.7418	-0.00101144	0.00403529
12.886	12.7423	-0.000597503	0.00336459
12.8865	12.7427	-0.000688533	0.00206898
12.887	12.7432	0.00088403	0.0025454
12.8874	12.7437	-0.000169571	0.00354986
12.8879	12.7441	-0.000979493	0.0041237
12.8884	12.7446	-0.000594703	0.00323134
12.8889	12.7451	-0.000631515	0.00220304
12.8893	12.7456	0.00084795	0.00261406
12.8898	12.746	-7.49387e-05	0.00366195
12.8903	12.7465	-0.00111013	0.0040879
12.8907	12.747	-0.000687267	0.00326731
12.8912	12.7475	-0.000473532	0.00203334
12.8917	12.748	0.000831613	0.0026838
12.8922	12.7484	-4.5065e-05	0.00378462
12.8926	12.7489	-0.0011178	0.00403045
12.8931	12.7493	-0.000393774	0.0033182
12.8936	12.7498	-0.000632317	0.00215993
12.8941	12.7503	0.000691769	0.00280352
12.8945	12.7507	-2.05241e-05	0.00366458
12.895	12.7512	-0.00113541	0.00407233
12.8955	12.7517	-0.000400177	0.0031739
12.8959	12.7522	-0.000481201	0.00212568
12.8964	12.7526	0.000726511	0.00274607
12.8969	12.7531	-0.000144763	0.00387681
12.8974	12.7535	-0.00109426	0.00401505
12.8978	12.754	-0.000416514	0.00335041
12.8983	12.7545	-0.000472266	0.00206013
12.8988	12.755	0.000685099	0.00278033
