# 1304     AichiSR QXAFS
# Start     : 8.9544
# End       : 9.0544
# Dir       : Forward
# Points    : 300
# ScanTime  : 1.01549
# Date      : 13.04.23 23:35
# Ring Cur. : 1[mA]
12.7557	12.7562	-3.12608e-05	0.0037879
12.7562	12.7557	-0.00115048	0.0039277
12.7566	12.7553	-0.000482004	0.00315629
12.7571	12.7548	-0.000362563	0.00205873
12.7576	12.7543	0.000725976	0.00288104
12.7581	12.7538	7.5107e-05	0.00383428
12.7585	12.7534	-0.00117636	0.00400726
12.759	12.7529	-0.000524951	0.00309917
12.7595	12.7525	-0.000370767	0.00212503
12.7599	12.752	0.000625013	0.0028113
12.7604	12.7515	3.88306e-05	0.00396818
12.7609	12.7511	-0.00114975	0.00402283
12.7614	12.7506	-0.000469733	0.00312842
12.7618	12.7501	-0.000152967	0.00217378
12.7623	12.7496	0.000563928	0.0028717
12.7628	12.7492	4.3432e-05	0.00397457
12.7632	12.7487	-0.00126351	0.00402423
12.7637	12.7483	-0.000433653	0.00314571
12.7642	12.7478	-0.000256463	0.00215354
12.7647	12.7473	0.00049924	0.00279729
12.7651	12.7468	-5.37329e-05	0.00395121
12.7656	12.7464	-0.00131513	0.00390327
12.7661	12.7459	-0.000436186	0.00308188
12.7666	12.7454	-0.000140892	0.00215633
12.767	12.7449	0.000529382	0.00281253
12.7675	12.7444	-4.35312e-05	0.00405332
12.768	12.744	-0.00135608	0.00383289
12.7684	12.7435	-0.000405777	0.00292791
12.7689	12.743	-0.000130156	0.00214404
12.7694	12.7426	0.000558256	0.00286891
12.7699	12.7421	-3.15283e-05	0.00404382
12.7703	12.7416	-0.00139136	0.00389705
12.7708	12.7412	-0.000468396	0.00306926
12.7713	12.7407	2.75589e-05	0.00212036
12.7717	12.7402	0.00032592	0.00287621
12.7722	12.7397	7.25743e-05	0.00402267
12.7727	12.7393	-0.00151326	0.00374119
12.7732	12.7388	-0.000396307	0.00289006
12.7736	12.7384	-9.20781e-05	0.00207602
12.7741	12.7379	0.000384936	0.00285752
12.7746	12.7374	0.000181742	0.00403389
12.7751	12.7369	-0.00147798	0.00374431
12.7755	12.7364	-0.000355162	0.00297805
12.776	12.736	0.000119855	0.00212052
12.7765	12.7355	0.000445557	0.00289414
12.7769	12.735	0.000132857	0.00416418
12.7774	12.7345	-0.00148925	0.00372611
12.7779	12.734	-0.000330888	0.00290939
12.7784	12.7336	5.51675e-05	0.00214855
12.7788	12.7331	0.000317181	0.00287669
12.7793	12.7326	0.000134658	0.00408134
12.7798	12.7322	-0.00150232	0.00365196
12.7802	12.7317	-0.00030608	0.00277254
12.7807	12.7312	7.1308e-05	0.00223901
12.7812	12.7307	0.000305446	0.00297569
12.7817	12.7303	0.00018201	0.00408044
12.7821	12.7298	-0.00156034	0.00373153
12.7826	12.7293	-0.000401176	0.00293413
12.7831	12.7289	0.000227221	0.00222188
12.7836	12.7284	0.00029931	0.00301976
12.784	12.7279	9.32452e-05	0.00422507
12.7845	12.7275	-0.00150686	0.0036241
12.785	12.727	-0.000347493	0.00281753
12.7854	12.7265	0.000208281	0.00220632
12.7859	12.726	0.000152529	0.00294659
12.7864	12.7256	0.000287771	0.00422925
12.7869	12.7251	-0.00161943	0.00358378
12.7873	12.7246	-0.000388174	0.00285473
12.7878	12.7241	0.000420749	0.00223852
12.7883	12.7237	0.000202948	0.00300436
12.7887	12.7232	0.000160269	0.00417664
12.7892	12.7227	-0.00152373	0.0037625
12.7897	12.7223	-0.00045279	0.00277533
12.7902	12.7218	0.000308246	0.00222967
12.7906	12.7213	0.000137458	0.0029511
12.7911	12.7209	8.55761e-05	0.0042853
12.7916	12.7204	-0.00141283	0.00366802
12.7921	12.7199	-0.000481201	0.00268224
12.7925	12.7195	0.00041308	0.00208971
12.793	12.719	4.72309e-05	0.00310663
12.7935	12.7185	3.16253e-05	0.00411748
12.7939	12.7181	-0.00137341	0.00363286
12.7944	12.7176	-0.000357694	0.00278344
12.7949	12.7171	0.000354795	0.00229973
12.7954	12.7166	0.000108583	0.00306427
12.7958	12.7162	4.54296e-05	0.0041863
12.7963	12.7157	-0.00138929	0.00352307
12.7968	12.7152	-0.000460994	0.00259006
12.7972	12.7147	0.000434018	0.00234611
12.7977	12.7142	-2.73907e-05	0.00312359
12.7982	12.7138	3.29628e-05	0.00427907
12.7987	12.7133	-0.00134507	0.00360312
12.7991	12.7128	-0.000284339	0.00249713
12.7996	12.7124	0.000502041	0.00239019
12.8001	12.7119	4.82297e-05	0.00305729
12.8006	12.7114	3.18928e-05	0.00430742
12.801	12.711	-0.00126118	0.00354052
12.8015	12.7105	-0.000430586	0.00254475
12.802	12.71	0.000508443	0.00243969
12.8024	12.7095	3.67618e-05	0.00305541
12.8029	12.7091	-5.68005e-05	0.00409412
12.8034	12.7086	-0.0012037	0.00357198
12.8039	12.7081	-0.000460994	0.00258416
12.8043	12.7077	0.00064909	0.00244887
12.8048	12.7072	0.000108583	0.00311425
12.8053	12.7067	-0.000242926	0.00419033
12.8057	12.7062	-0.00125531	0.0036014
12.8062	12.7057	-0.000462261	0.00249557
12.8067	12.7053	0.000659024	0.00242568
12.8072	12.7048	-0.000126089	0.00312687
12.8076	12.7043	-0.000165701	0.00413272
12.8081	12.7038	-0.00129419	0.00355608
12.8086	12.7033	-0.000361029	0.00256064
12.8091	12.7029	0.000601274	0.00240823
12.8095	12.7024	-5.55342e-05	0.00323085
12.81	12.7019	-0.000207916	0.00423613
12.8105	12.7015	-0.00105898	0.00352543
12.8109	12.701	-0.00048327	0.00248623
12.8114	12.7005	0.000692768	0.00243781
12.8119	12.7	-4.17299e-05	0.00319955
12.8124	12.6996	-0.000175706	0.00414255
12.8128	12.6991	-0.0011262	0.0035978
12.8133	12.6987	-0.000525147	0.00245026
12.8138	12.6982	0.000677965	0.00258931
12.8142	12.6977	-9.02768e-05	0.00330559
12.8147	12.6973	-0.000320152	0.00429341
12.8152	12.6968	-0.00102651	0.00353117
12.8157	12.6963	-0.000624648	0.00234316
12.8161	12.6958	0.000838016	0.00244559
12.8166	12.6954	-0.000108486	0.0032869
12.8171	12.6949	-0.000407311	0.00415517
12.8176	12.6944	-0.00103318	0.00343653
12.818	12.6939	-0.000558159	0.0025018
12.8185	12.6935	0.000864019	0.00250475
12.819	12.693	-9.92121e-05	0.00331992
12.8194	12.6925	-0.000421115	0.00418877
12.8199	12.6921	-0.000934477	0.00341006
12.8204	12.6916	-0.000557357	0.00227654
12.8209	12.6911	0.000808338	0.00250959
12.8213	12.6907	-0.000114889	0.00326961
12.8218	12.6902	-0.000454128	0.00409912
12.8223	12.6897	-0.000928342	0.00353928
12.8227	12.6892	-0.000578366	0.00227466
12.8232	12.6888	0.000823944	0.00257932
12.8237	12.6883	4.56971e-05	0.00337425
12.8242	12.6879	-0.000522614	0.00415033
12.8246	12.6874	-0.00091814	0.00350643
12.8251	12.6869	-0.000630248	0.00225163
12.8256	12.6864	0.00104761	0.00248656
12.8261	12.6859	-0.000146296	0.00341022
12.8265	12.6855	-0.000631782	0.00413944
12.827	12.685	-0.000802035	0.00335745
12.8275	12.6845	-0.00060931	0.00226048
12.8279	12.684	0.000974257	0.00263586
12.8284	12.6835	-0.000123557	0.00349053
12.8289	12.6831	-0.000618245	0.00408199
12.8294	12.6826	-0.000860587	0.00345865
12.8298	12.6821	-0.00060544	0.00225007
12.8303	12.6817	0.00100213	0.00264938
12.8308	12.6812	-6.62708e-05	0.00347078
12.8312	12.6807	-0.000684734	0.00415452
12.8317	12.6802	-0.000691601	0.00347808
12.8322	12.6798	-0.000636651	0.00215494
12.8327	12.6793	0.000983727	0.00267102
12.8331	12.6788	-3.58622e-05	0.00358518
12.8336	12.6784	-0.000732478	0.0041156
12.8341	12.6779	-0.000784895	0.00338531
12.8346	12.6774	-0.000664527	0.00224572
12.835	12.6769	0.000912102	0.00271805
12.8355	12.6765	-0.000120489	0.0036168
12.836	12.676	-0.000705405	0.00425105
12.8364	12.6755	-0.000733013	0.00333066
12.8369	12.675	-0.000677261	0.00204596
12.8374	12.6745	0.000875094	0.00274403
12.8379	12.6741	-0.000151433	0.00344104
12.8383	12.6736	-0.000851384	0.00416837
12.8388	12.6731	-0.000682933	0.00340399
12.8393	12.6727	-0.000630516	0.00209111
12.8397	12.6722	0.000896764	0.00261825
12.8402	12.6717	-0.00014116	0.00365573
12.8407	12.6713	-0.000876924	0.00403824
12.8412	12.6708	-0.000625914	0.0033663
12.8416	12.6703	-0.000676994	0.00215494
12.8421	12.6698	0.000894963	0.00272707
12.8426	12.6694	-0.000183839	0.00366662
12.8431	12.6689	-0.000906601	0.00404414
12.8435	12.6685	-0.000558891	0.00332336
12.844	12.668	-0.000715874	0.00208955
12.8445	12.6675	0.000939247	0.0026715
12.8449	12.667	-8.36777e-05	0.00362271
12.8454	12.6666	-0.000930143	0.00405536
12.8459	12.6661	-0.000544355	0.00331493
12.8464	12.6656	-0.000593901	0.00208971
12.8468	12.6651	0.00084795	0.00274264
12.8473	12.6647	-0.000165237	0.00365106
12.8478	12.6642	-0.00104825	0.00402423
12.8482	12.6637	-0.000476868	0.003222
12.8487	12.6633	-0.00061211	0.00213003
12.8492	12.6628	0.000854085	0.00275697
12.8497	12.6623	-8.10739e-05	0.0037348
12.8501	12.6619	-0.00105438	0.00392319
12.8506	12.6614	-0.000482468	0.00324782
12.8511	12.6609	-0.000453058	0.00211167
12.8516	12.6604	0.000836946	0.0027428
12.852	12.66	1.40222e-05	0.00374554
12.8525	12.6595	-0.00107892	0.00399448
12.853	12.659	-0.00046433	0.00324519
12.8534	12.6586	-0.000486802	0.00219902
12.8539	12.6581	0.000746451	0.00266635
12.8544	12.6576	-0.000105615	0.00380175
12.8549	12.6572	-0.00109246	0.00393409
12.8553	12.6567	-0.000459728	0.00311752
12.8558	12.6562	-0.000399375	0.00216288
12.8563	12.6557	0.000702238	0.00278451
12.8567	12.6552	0.000113185	0.0037843
12.8572	12.6548	-0.00123077	0.00398686
12.8577	12.6543	-0.00044999	0.00308703
12.8582	12.6538	-0.000303815	0.00221066
12.8586	12.6533	0.000671562	0.00280679
12.8591	12.6529	-1.0055e-05	0.00379724
12.8596	12.6524	-0.00125558	0.00394842
12.8601	12.6519	-0.000374299	0.00318152
12.8605	12.6515	-0.000294077	0.00215961
12.861	12.651	0.000615078	0.00282687
12.8615	12.6505	-4.91854e-06	0.00372906
12.8619	12.65	-0.00125378	0.00400103
12.8624	12.6496	-0.000447458	0.00309729
12.8629	12.6491	-0.000341892	0.0021347
12.8634	12.6486	0.000628615	0.00265684
12.8638	12.6482	-2.9727e-05	0.00397113
12.8643	12.6477	-0.00134408	0.00379708
12.8648	12.6472	-0.0004682	0.00314694
12.8652	12.6467	-0.000278471	0.00214543
12.8657	12.6462	0.000563393	0.00274108
12.8662	12.6458	5.64338e-05	0.00396351
12.8667	12.6453	-0.0013172	0.00389173
12.8671	12.6448	-0.000391438	0.00308746
12.8676	12.6443	-0.000174707	0.00218329
12.8681	12.6439	0.000479836	0.002839
12.8686	12.6434	6.3104e-05	0.0040756
12.869	12.6429	-0.00127425	0.00378119
12.8695	12.6425	-0.000491671	0.00306336
12.87	12.642	-4.04636e-05	0.0021719
12.8704	12.6415	0.000474967	0.0028127
12.8709	12.6411	6.71704e-05	0.00402766
12.8714	12.6406	-0.00137782	0.00381732
12.8719	12.6401	-0.00047767	0.00299625
12.8723	12.6397	-7.46712e-05	0.00213051
12.8728	12.6392	0.000444023	0.00278639
12.8733	12.6387	2.269e-05	0.00402202
12.8737	12.6383	-0.00140336	0.0037071
12.8742	12.6378	-0.000422382	0.00294906
12.8747	12.6373	-8.28752e-05	0.00211618
12.8752	12.6368	0.000357863	0.00295158
12.8756	12.6364	9.91129e-05	0.00405069
12.8761	12.6359	-0.00146978	0.0037035
12.8766	12.6354	-0.000362367	0.00307237
12.8771	12.6349	2.90927e-05	0.00213642
12.8775	12.6345	0.00042255	0.00275632
12.878	12.634	0.000161535	0.00409101
12.8785	12.6335	-0.00158182	0.00389533
12.8789	12.633	-0.000368966	0.00289398
12.8794	12.6326	8.91787e-05	0.00212584
12.8799	12.6321	0.000425083	0.00296372
12.8804	12.6317	0.000190143	0.00418909
12.8808	12.6312	-0.00155927	0.00373931
12.8813	12.6307	-0.000364365	0.00282236
12.8818	12.6302	5.64338e-05	0.00218296
12.8822	12.6298	0.000209351	0.00289349
12.8827	12.6293	0.000230557	0.00412247
12.8832	12.6288	-0.00152046	0.00368874
12.8837	12.6284	-0.000391242	0.00291701
12.8841	12.6279	0.000126989	0.00227605
12.8846	12.6274	0.000203483	0.00303222
12.8851	12.6269	0.000188876	0.0040974
12.8856	12.6265	-0.00149819	0.00374603
12.886	12.626	-0.000385303	0.00280352
12.8865	12.6255	0.000203679	0.0021864
12.887	12.625	0.000154865	0.00289349
12.8874	12.6245	8.02434e-05	0.0041972
12.8879	12.6241	-0.0014363	0.00362008
12.8884	12.6236	-0.000431121	0.00261497
12.8889	12.6231	0.000295975	0.00222935
12.8893	12.6226	0.000190945	0.00306599
12.8898	12.6222	0.000217216	0.00415484
12.8903	12.6217	-0.00149845	0.00372734
12.8907	12.6212	-0.000401443	0.00274886
12.8912	12.6207	0.000417681	0.00229645
12.8917	12.6203	0.000230289	0.003045
12.8922	12.6198	9.5849e-05	0.00419548
12.8926	12.6193	-0.00139235	0.00368686
12.8931	12.6189	-0.000382503	0.00277222
12.8936	12.6184	0.000433019	0.00227621
12.8941	12.6179	0.00019321	0.00301788
12.8945	12.6175	8.07784e-05	0.00417057
12.895	12.617	-0.00137341	0.00360483
12.8955	12.6165	-0.000454859	0.00256032
12.8959	12.616	0.000479033	0.00237102
12.8964	12.6156	1.86236e-05	0.00305804
12.8969	12.6151	6.53691e-05	0.00425277
12.8974	12.6146	-0.0014279	0.00356682
12.8978	12.6141	-0.000392241	0.00255441
12.8983	12.6137	0.000498705	0.00234209
12.8988	12.6132	-2.99945e-05	0.00309385
