# 1304     AichiSR QXAFS
# Start     : 8.9544
# End       : 9.0544
# Dir       : Backward
# Points    : 300
# ScanTime  : 1.01549
# Date      : 13.04.23 23:53
# Ring Cur. : 1[mA]
12.7557	12.6124	6.41028e-05	0.00441452
12.7562	12.6128	-0.00123564	0.00366007
12.7566	12.6133	-0.000360762	0.00271477
12.7571	12.6138	0.000553922	0.00236963
12.7576	12.6142	2.01574e-05	0.0031907
12.7581	12.6147	2.50263e-05	0.00423908
12.7585	12.6152	-0.00116301	0.00371923
12.759	12.6157	-0.000437987	0.0026416
12.7595	12.6162	0.000478766	0.00243593
12.7599	12.6166	-6.4737e-05	0.00312203
12.7604	12.6171	4.10957e-05	0.00431193
12.7609	12.6176	-0.0012175	0.00370973
12.7614	12.6181	-0.000400177	0.00268724
12.7618	12.6185	0.000711441	0.00239298
12.7623	12.619	9.78466e-05	0.00318866
12.7628	12.6195	-0.00014116	0.00429013
12.7632	12.6199	-0.00116842	0.00372858
12.7637	12.6204	-0.000430051	0.0026992
12.7642	12.6209	0.000586667	0.00251082
12.7647	12.6214	6.95067e-05	0.00323381
12.7651	12.6218	-0.000238592	0.00429324
12.7656	12.6223	-0.00105385	0.00359222
12.7661	12.6228	-0.000445924	0.0027101
12.7666	12.6232	0.000753121	0.00257965
12.767	12.6237	-1.97216e-05	0.00331369
12.7675	12.6242	-0.000152699	0.00428267
12.768	12.6247	-0.00104518	0.00352806
12.7684	12.6251	-0.000490939	0.00246583
12.7689	12.6256	0.000734448	0.00243437
12.7694	12.6261	-7.42074e-05	0.00343153
12.7699	12.6266	-0.000243925	0.00428686
12.7703	12.627	-0.00101984	0.00359001
12.7708	12.6275	-0.000396307	0.00248172
12.7713	12.628	0.000862022	0.0025499
12.7717	12.6285	-6.9606e-05	0.0033327
12.7722	12.6289	-0.000309415	0.00430554
12.7727	12.6294	-0.000985628	0.00372235
12.7732	12.6299	-0.000575031	0.00237462
12.7736	12.6303	0.000898298	0.00259956
12.7741	12.6308	9.35127e-05	0.00341022
12.7746	12.6313	-0.000454592	0.00434446
12.7751	12.6318	-0.00102264	0.00356682
12.7755	12.6322	-0.000430051	0.00238348
12.776	12.6327	0.00102027	0.00261808
12.7765	12.6332	-5.55342e-05	0.00325486
12.7769	12.6336	-0.000384037	0.00433684
12.7774	12.6341	-0.000820708	0.00359533
12.7779	12.6346	-0.000490672	0.00247861
12.7784	12.635	0.000943581	0.0025513
12.7788	12.6355	-0.000157033	0.00332255
12.7793	12.636	-0.000460727	0.00428218
12.7798	12.6365	-0.000862121	0.00352946
12.7802	12.6369	-0.00053435	0.00245493
12.7807	12.6374	0.000950715	0.00265905
12.7812	12.6379	-6.88035e-05	0.00351389
12.7817	12.6384	-0.000432583	0.00422662
12.7821	12.6388	-0.000865991	0.00356731
12.7826	12.6393	-0.000601373	0.00243002
12.7831	12.6397	0.000989863	0.00277861
12.7836	12.6402	-0.000123022	0.00349832
12.784	12.6407	-0.000579633	0.00427923
12.7845	12.6412	-0.000789764	0.00354035
12.785	12.6416	-0.000542821	0.00232136
12.7854	12.6421	0.000946916	0.00264971
12.7859	12.6426	-0.000113016	0.00362255
12.7864	12.643	-0.000622312	0.00429947
12.7869	12.6435	-0.000771359	0.00340662
12.7873	12.644	-0.000645854	0.00226408
12.7878	12.6444	0.000947647	0.00264192
12.7883	12.6449	-8.80117e-05	0.00352232
12.7887	12.6454	-0.000642786	0.00419999
12.7892	12.6459	-0.000860052	0.00361058
12.7897	12.6464	-0.000627181	0.00219214
12.7902	12.6468	0.000938712	0.0028004
12.7906	12.6473	-5.83343e-05	0.00362942
12.7911	12.6478	-0.00067653	0.00421712
12.7916	12.6483	-0.000733816	0.00350159
12.7921	12.6487	-0.000553558	0.0021769
12.7925	12.6492	0.0011261	0.00278811
12.793	12.6497	-0.000158299	0.00361385
12.7935	12.6501	-0.000673997	0.00415017
12.7939	12.6506	-0.000635117	0.00357321
12.7944	12.6511	-0.000560496	0.00227187
12.7949	12.6516	0.00103994	0.00277565
12.7954	12.652	-0.000193309	0.00370227
12.7958	12.6525	-0.000789764	0.00411903
12.7963	12.653	-0.000664795	0.00345784
12.7968	12.6534	-0.000458462	0.00221099
12.7972	12.6539	0.000937178	0.00285055
12.7977	12.6544	1.62873e-05	0.00376627
12.7982	12.6549	-0.000874124	0.00428374
12.7987	12.6553	-0.00050601	0.00351421
12.7991	12.6558	-0.00061491	0.0022032
12.7996	12.6563	0.000907768	0.00276524
12.8001	12.6568	-8.10739e-05	0.00362099
12.8006	12.6573	-0.000924008	0.00416542
12.801	12.6577	-0.00066986	0.00340941
12.8015	12.6582	-0.000507544	0.00232866
12.802	12.6587	0.000884494	0.00286424
12.8024	12.6591	-1.99891e-05	0.00374619
12.8029	12.6596	-0.000955683	0.00408183
12.8034	12.6601	-0.000403976	0.00348586
12.8039	12.6605	-0.000421383	0.00219493
12.8043	12.661	0.000818807	0.002839
12.8048	12.6615	7.48395e-05	0.00384641
12.8053	12.662	-0.000930607	0.00416123
12.8057	12.6624	-0.000387907	0.00337237
12.8062	12.6629	-0.000501141	0.00215633
12.8067	12.6633	0.00076079	0.00291389
12.8072	12.6638	-1.6119e-05	0.00379708
12.8076	12.6643	-0.000928074	0.00415124
12.8081	12.6648	-0.000477331	0.00331181
12.8086	12.6652	-0.000530283	0.00222967
12.8091	12.6657	0.000869691	0.00279589
12.8095	12.6662	5.81811e-06	0.00395776
12.81	12.6667	-0.00118349	0.00402922
12.8105	12.6672	-0.000461529	0.00319177
12.8109	12.6676	-0.000436989	0.00222811
12.8114	12.6681	0.000790931	0.00287293
12.8119	12.6686	8.40423e-05	0.00384846
12.8124	12.669	-0.00115281	0.00405676
12.8128	12.6695	-0.000364632	0.0033028
12.8133	12.67	-0.000331887	0.00219198
12.8138	12.6704	0.000636284	0.00284056
12.8142	12.6709	5.26348e-05	0.00393532
12.8147	12.6714	-0.00118602	0.00396146
12.8152	12.6718	-0.000269536	0.00337672
12.8157	12.6723	-0.000181841	0.00223246
12.8161	12.6728	0.000683832	0.00289398
12.8166	12.6732	3.82956e-05	0.0038964
12.8171	12.6737	-0.00110246	0.00410314
12.8176	12.6742	-0.000332155	0.00325346
12.818	12.6747	-0.000319082	0.00218608
12.8185	12.6751	0.00063088	0.00295733
12.819	12.6756	9.83816e-05	0.004101
12.8194	12.6761	-0.0013162	0.00407249
12.8199	12.6766	-0.000312483	0.00331477
12.8204	12.6771	-0.000179773	0.00219697
12.8209	12.6775	0.000696638	0.00285645
12.8213	12.678	6.69029e-05	0.00401848
12.8218	12.6785	-0.00125458	0.00388131
12.8223	12.679	-0.000310681	0.00312703
12.8227	12.6794	-6.62708e-05	0.00227793
12.8232	12.6799	0.000554725	0.00290472
12.8237	12.6803	0.000149265	0.00403684
12.8242	12.6808	-0.00142943	0.0038841
12.8246	12.6813	-0.000339824	0.00296388
12.8251	12.6818	-0.000133758	0.00230875
12.8256	12.6822	0.00045476	0.00287932
12.8261	12.6827	2.72914e-05	0.00395228
12.8265	12.6832	-0.00129266	0.00388099
12.827	12.6836	-0.000322952	0.00303394
12.8275	12.6841	2.47588e-05	0.00214699
12.8279	12.6846	0.000391143	0.00272911
12.8284	12.6851	0.000102181	0.00409445
12.8289	12.6856	-0.00139795	0.0037988
12.8294	12.686	-0.000321685	0.00305557
12.8298	12.6865	5.81811e-06	0.00218608
12.8303	12.687	0.000497172	0.00291389
12.8308	12.6875	8.63786e-05	0.00408183
12.8312	12.688	-0.00140182	0.00374087
12.8317	12.6884	-0.000342624	0.00299142
12.8322	12.6889	2.7505e-06	0.00225753
12.8327	12.6893	0.000517111	0.00287513
12.8331	12.6898	0.000211883	0.0041156
12.8336	12.6903	-0.00140129	0.00387369
12.8341	12.6908	-0.000275868	0.0029788
12.8346	12.6912	0.000115788	0.00225163
12.835	12.6917	0.000322318	0.00293757
12.8355	12.6922	0.00021595	0.00420933
12.836	12.6926	-0.00147238	0.00385206
12.8364	12.6931	-0.000340822	0.00305181
12.8369	12.6936	7.41082e-05	0.00227949
12.8374	12.694	0.000255829	0.0029125
12.8379	12.6945	0.000296243	0.00430742
12.8383	12.695	-0.00140769	0.00376267
12.8388	12.6955	-0.000290742	0.00307656
12.8393	12.6959	0.000274769	0.00223778
12.8397	12.6964	0.000259699	0.00298675
12.8402	12.6969	0.000277837	0.00434307
12.8407	12.6974	-0.00141563	0.00379241
12.8412	12.6978	-0.000297876	0.00295626
12.8416	12.6983	0.000273503	0.00229645
12.8421	12.6988	0.000291909	0.00295373
12.8426	12.6992	0.000166137	0.00438617
12.8431	12.6997	-0.00136835	0.00378355
12.8435	12.7001	-0.000142961	0.00289972
12.844	12.7006	0.000404144	0.0022899
12.8445	12.7011	0.000219285	0.0030836
12.8449	12.7016	0.000149265	0.00419532
12.8454	12.7021	-0.00135834	0.00378119
12.8459	12.7025	-0.000300943	0.00280164
12.8464	12.703	0.000401808	0.00233865
12.8468	12.7035	0.000140526	0.00300591
12.8473	12.7039	0.000168134	0.00421991
12.8478	12.7044	-0.00132793	0.00383895
12.8482	12.7049	-0.000375101	0.00277721
12.8487	12.7054	0.000424084	0.00241306
12.8492	12.7058	0.000224689	0.00310695
12.8497	12.7063	0.000178407	0.00436003
12.8501	12.7068	-0.00134814	0.00373668
12.8506	12.7073	-0.000365898	0.00271289
12.8511	12.7078	0.000441955	0.00231997
12.8516	12.7082	7.79071e-05	0.0032184
12.852	12.7087	0.000152529	0.00432717
12.8525	12.7092	-0.00118449	0.00375349
12.853	12.7096	-0.000384037	0.00271649
12.8534	12.7101	0.000537586	0.00234144
12.8539	12.7106	5.51675e-05	0.00318554
12.8544	12.7111	7.23068e-05	0.0042299
12.8549	12.7115	-0.00117835	0.0036109
12.8553	12.712	-0.000393507	0.00274108
12.8558	12.7125	0.000571062	0.0024274
12.8563	12.7129	1.93549e-05	0.00314523
12.8567	12.7134	7.35192e-06	0.00437764
12.8572	12.7139	-0.0012249	0.00374726
12.8577	12.7143	-0.000358229	0.00269593
12.8582	12.7148	0.000667959	0.00238364
12.8586	12.7153	-2.9192e-05	0.00317948
12.8591	12.7158	-4.32637e-05	0.00431316
12.8596	12.7163	-0.00122437	0.00375848
12.8601	12.7167	-0.000399107	0.00274328
12.8605	12.7172	0.000643686	0.00251238
12.861	12.7177	8.43098e-05	0.00323536
12.8615	12.7182	-9.08118e-05	0.0043021
12.8619	12.7186	-0.00115155	0.00365277
12.8624	12.7191	-0.000404975	0.00266512
12.8629	12.7195	0.000623746	0.00244468
12.8634	12.72	4.16307e-05	0.00321668
12.8638	12.7205	-2.23254e-05	0.00428374
12.8643	12.721	-0.00108072	0.00358395
12.8648	12.7214	-0.000474799	0.0025127
12.8652	12.7219	0.000651622	0.00246116
12.8657	12.7224	6.71704e-05	0.00326044
12.8662	12.7228	-0.000237059	0.00434757
12.8667	12.7233	-0.000977691	0.00361525
12.8671	12.7238	-0.000415515	0.00259661
12.8676	12.7242	0.000717309	0.00248828
12.8681	12.7247	-7.85413e-05	0.00337393
12.8686	12.7252	-0.000217654	0.00428186
12.869	12.7257	-0.00103191	0.00365991
12.8695	12.7261	-0.000452594	0.00259629
12.87	12.7266	0.000713242	0.00254572
12.8704	12.7271	7.08442e-06	0.00342998
12.8709	12.7276	-0.000393239	0.00442435
12.8714	12.728	-0.00104265	0.00354969
12.8719	12.7285	-0.000425984	0.00247845
12.8723	12.729	0.000819342	0.00252065
12.8728	12.7294	-7.75425e-05	0.00326232
12.8733	12.7299	-0.000383038	0.00425588
12.8737	12.7304	-0.000986627	0.00367081
12.8742	12.7309	-0.000452327	0.00244296
12.8747	12.7313	0.000891431	0.0025535
12.8752	12.7318	-2.45905e-05	0.00339089
12.8756	12.7323	-0.000385303	0.00423097
12.8761	12.7327	-0.000870057	0.00361852
12.8766	12.7332	-0.000636116	0.00234456
12.8771	12.7337	0.000937446	0.00255753
12.8775	12.7342	2.82902e-05	0.00341285
12.878	12.7346	-0.000505742	0.00420015
12.8785	12.7351	-0.000905335	0.00356059
12.8789	12.7356	-0.000600571	0.00232292
12.8794	12.7361	0.00102541	0.00264111
12.8799	12.7366	-0.000101548	0.00344383
12.8804	12.737	-0.000501141	0.004278
12.8808	12.7375	-0.00091427	0.00356419
12.8813	12.738	-0.000543089	0.00237397
12.8818	12.7385	0.000975791	0.00270822
12.8822	12.7389	-4.81327e-05	0.00341784
12.8827	12.7394	-0.000549688	0.00426383
12.8832	12.7399	-0.000813306	0.00358116
12.8837	12.7403	-0.000603371	0.00224803
12.8841	12.7408	0.000969388	0.00269174
12.8846	12.7413	-9.18106e-05	0.00356854
12.8851	12.7418	-0.000629249	0.00427907
12.8856	12.7422	-0.000686999	0.0036109
12.886	12.7427	-0.000670395	0.00238225
12.8865	12.7432	0.000948182	0.00276304
12.887	12.7436	-8.41415e-05	0.00356387
12.8874	12.7441	-0.000622847	0.00422023
12.8879	12.7446	-0.000804906	0.00351249
12.8884	12.745	-0.000547155	0.00230751
12.8889	12.7455	0.00108496	0.00279573
12.8893	12.746	-6.16694e-05	0.00350315
12.8898	12.7465	-0.000686268	0.00422335
12.8903	12.747	-0.00068493	0.00351233
12.8907	12.7474	-0.000645051	0.00225909
12.8912	12.7479	0.00100927	0.00278762
12.8917	12.7484	-1.99891e-05	0.00359812
12.8922	12.7488	-0.000791298	0.00428047
12.8926	12.7493	-0.0005827	0.00349708
12.8931	12.7498	-0.000587569	0.00217067
12.8936	12.7502	0.000964252	0.00284851
12.8941	12.7507	-4.63313e-05	0.00361074
12.8945	12.7512	-0.000831445	0.0041469
12.895	12.7517	-0.000603906	0.00342284
12.8955	12.7521	-0.000573497	0.00213765
12.8959	12.7526	0.000929777	0.00277689
12.8964	12.753	-2.79257e-05	0.00364064
12.8969	12.7535	-0.000910204	0.00419811
12.8974	12.754	-0.000587837	0.00326715
12.8978	12.7544	-0.000615445	0.0021828
12.8983	12.7549	0.000912637	0.00279418
12.8988	12.7554	-5.94043e-05	0.00369604
