# 1304     AichiSR QXAFS
# Start     : 8.9544
# End       : 9.0544
# Dir       : Backward
# Points    : 300
# ScanTime  : 1.01549
# Date      : 13.04.24 00:32
# Ring Cur. : 0.9[mA]
12.7557	12.6124	-0.000420384	0.00217035
12.7562	12.6128	0.000868157	0.0027151
12.7566	12.6133	-4.453e-05	0.00382945
12.7571	12.6138	-0.000989962	0.0040879
12.7576	12.6142	-0.000373032	0.00330698
12.7581	12.6147	-0.000382039	0.00208864
12.7585	12.6152	0.000695835	0.00284727
12.759	12.6157	0.000117251	0.00379134
12.7595	12.6161	-0.00112981	0.00401972
12.7599	12.6166	-0.00028054	0.00315505
12.7604	12.6171	-0.000265666	0.00209578
12.7609	12.6176	0.000585401	0.00286563
12.7614	12.6181	0.000103786	0.00399185
12.7618	12.6185	-0.00118736	0.0039109
12.7623	12.619	-0.00018284	0.00317062
12.7628	12.6194	-0.000275136	0.00217346
12.7632	12.6199	0.000646753	0.00278156
12.7637	12.6204	3.34267e-05	0.00397908
12.7642	12.6209	-0.00119423	0.00390016
12.7647	12.6214	-0.000423184	0.00303533
12.7651	12.6218	-0.000178506	0.00222467
12.7656	12.6223	0.000580265	0.00277844
12.7661	12.6228	2.67564e-05	0.00392491
12.7666	12.6232	-0.00128859	0.00387272
12.767	12.6237	-0.000450525	0.00301026
12.7675	12.6242	-0.000113016	0.00213158
12.768	12.6246	0.000566728	0.00285301
12.7684	12.6251	-2.8657e-05	0.00405831
12.7689	12.6256	-0.00135734	0.00381388
12.7694	12.6261	-0.000375369	0.00310679
12.7699	12.6266	-0.000141695	0.00208815
12.7703	12.627	0.000440688	0.00286563
12.7708	12.6275	0.000155864	0.00397596
12.7713	12.628	-0.00131747	0.00368793
12.7717	12.6285	-0.000358497	0.00298133
12.7722	12.6289	-4.70627e-05	0.00210307
12.7727	12.6294	0.000453761	0.0028127
12.7732	12.6299	0.000147731	0.00396179
12.7736	12.6303	-0.00144351	0.00377856
12.7741	12.6308	-0.000274869	0.00298846
12.7746	12.6313	5.72363e-05	0.00213158
12.7751	12.6318	0.000383937	0.00291341
12.7755	12.6322	0.000136727	0.00408478
12.776	12.6327	-0.00138929	0.00359984
12.7765	12.6331	-0.000408577	0.0029329
12.7769	12.6336	-5.27341e-05	0.00217346
12.7774	12.6341	0.000194744	0.0029511
12.7779	12.6346	0.000161	0.00406954
12.7784	12.635	-0.00142663	0.00381265
12.7788	12.6355	-0.000363366	0.00282875
12.7793	12.636	1.52885e-05	0.00217239
12.7798	12.6365	0.000301647	0.00301805
12.7802	12.6369	0.000219017	0.00409879
12.7807	12.6374	-0.00139389	0.00368686
12.7812	12.6379	-0.000257266	0.00284851
12.7817	12.6384	0.000274769	0.00218173
12.7821	12.6388	0.000171202	0.00289349
12.7826	12.6393	0.000132589	0.00415312
12.7831	12.6397	-0.00145704	0.00371317
12.7836	12.6402	-0.000199712	0.00288759
12.784	12.6407	0.000188609	0.00213905
12.7845	12.6412	0.000139794	0.00295437
12.785	12.6416	0.000295779	0.00419532
12.7854	12.6421	-0.00148745	0.00358518
12.7859	12.6426	-0.000376368	0.00274591
12.7864	12.643	0.000355794	0.0023961
12.7869	12.6435	0.000174073	0.00291873
12.7873	12.644	0.000132125	0.0042227
12.7878	12.6444	-0.00138929	0.00366818
12.7883	12.6449	-0.000244728	0.00275976
12.7887	12.6454	0.000280905	0.00235701
12.7892	12.6459	0.000178407	0.00304107
12.7897	12.6463	0.000167403	0.00414862
12.7902	12.6468	-0.00132027	0.00356682
12.7906	12.6473	-0.000367165	0.00265561
12.7911	12.6478	0.000486702	0.00232603
12.7916	12.6483	-3.11723e-06	0.00304591
12.7921	12.6487	4.36995e-05	0.00421572
12.7925	12.6492	-0.00125638	0.00361041
12.793	12.6497	-0.000390172	0.00267102
12.7935	12.6501	0.000505643	0.00238675
12.7939	12.6506	0.000208548	0.0032497
12.7944	12.6511	0.000150531	0.00427456
12.7949	12.6516	-0.00125638	0.00360795
12.7954	12.652	-0.00038277	0.00254974
12.7958	12.6525	0.000546788	0.00232727
12.7963	12.653	4.36283e-05	0.0031303
12.7968	12.6534	5.67013e-05	0.00418754
12.7972	12.6539	-0.00125611	0.00370055
12.7977	12.6544	-0.000428784	0.0027028
12.7982	12.6549	0.000599473	0.00233194
12.7987	12.6553	1.86236e-05	0.00307098
12.7991	12.6558	-2.66593e-05	0.00424702
12.7996	12.6563	-0.00122003	0.00361197
12.8001	12.6568	-0.000444658	0.00250959
12.8006	12.6572	0.00061968	0.00255613
12.801	12.6577	-4.14624e-05	0.00323397
12.8015	12.6582	-5.68005e-05	0.00433463
12.802	12.6587	-0.00112747	0.00364434
12.8024	12.6591	-0.000395576	0.00251221
12.8029	12.6596	0.000709372	0.00237151
12.8034	12.6601	-0.000105419	0.00325174
12.8039	12.6605	-7.24061e-05	0.00418614
12.8043	12.661	-0.00114768	0.00365744
12.8048	12.6615	-0.000464597	0.00254695
12.8053	12.662	0.000737783	0.00254073
12.8057	12.6624	-2.17904e-05	0.00316284
12.8062	12.6629	-0.00031555	0.00418582
12.8067	12.6633	-0.00106358	0.0035628
12.8072	12.6638	-0.000448991	0.00245837
12.8076	12.6643	0.000802471	0.00245526
12.8081	12.6648	-5.86018e-05	0.00328239
12.8086	12.6652	-0.000351363	0.00419639
12.8091	12.6657	-0.00112954	0.00356092
12.8095	12.6662	-0.000471	0.00238053
12.81	12.6667	0.000897299	0.00251377
12.8105	12.6671	-9.15431e-05	0.00330435
12.8109	12.6676	-0.000333421	0.00417181
12.8114	12.6681	-0.00100863	0.00344087
12.8119	12.6686	-0.000495541	0.00233677
12.8124	12.669	0.000832077	0.00252483
12.8128	12.6695	-0.000198446	0.00336754
12.8133	12.6699	-0.000493739	0.00410019
12.8138	12.6704	-0.000809971	0.00361385
12.8142	12.6709	-0.000502675	0.00228883
12.8147	12.6714	0.000896497	0.0026103
12.8152	12.6718	-8.00751e-05	0.00336835
12.8157	12.6723	-0.000494471	0.00422179
12.8161	12.6727	-0.00083371	0.0035687
12.8166	12.6732	-0.000638916	0.00226097
12.8171	12.6737	0.000890896	0.00264676
12.8176	12.6742	-0.000146564	0.00339465
12.818	12.6746	-0.000617443	0.00411248
12.8185	12.6751	-0.000803836	0.0034471
12.819	12.6756	-0.00053155	0.00225753
12.8194	12.6761	0.000952784	0.00273034
12.8199	12.6766	-6.68058e-05	0.00346111
12.8204	12.677	-0.000568628	0.00419827
12.8209	12.6775	-0.000829376	0.00348946
12.8213	12.678	-0.000562493	0.00220304
12.8218	12.6785	0.000993929	0.00264144
12.8223	12.6789	-0.000130691	0.00343727
12.8227	12.6794	-0.000679598	0.00421958
12.8232	12.6799	-0.000717675	0.00342407
12.8237	12.6803	-0.000658659	0.00226204
12.8242	12.6808	0.000952516	0.00257498
12.8246	12.6813	-0.000136826	0.00353117
12.8251	12.6818	-0.000858786	0.00403824
12.8256	12.6822	-0.000765491	0.00342219
12.8261	12.6827	-0.000530016	0.00209873
12.8265	12.6832	0.00102	0.00256048
12.827	12.6836	-0.000128426	0.00355625
12.8275	12.6841	-0.000657589	0.00406626
12.8279	12.6846	-0.000659391	0.0034521
12.8284	12.6851	-0.000606706	0.00217673
12.8289	12.6856	0.000966855	0.0026693
12.8294	12.686	-0.000125822	0.00377872
12.8298	12.6865	-0.00086979	0.00410486
12.8303	12.687	-0.00043599	0.0033604
12.8308	12.6875	-0.000501141	0.00203866
12.8312	12.6879	0.00101874	0.00280974
12.8317	12.6884	1.27558e-05	0.00375086
12.8322	12.6889	-0.0010173	0.00410363
12.8327	12.6893	-0.000540485	0.00331509
12.8331	12.6898	-0.000593169	0.00204644
12.8336	12.6903	0.000936911	0.00267601
12.8341	12.6907	-6.14019e-05	0.00367022
12.8346	12.6912	-0.000978226	0.00406175
12.835	12.6917	-0.000572499	0.00320004
12.8355	12.6922	-0.000587765	0.00206931
12.836	12.6926	0.000862753	0.00273485
12.8364	12.6931	-1.74565e-05	0.00369358
12.8369	12.6935	-0.00101297	0.00407716
12.8374	12.694	-0.000557624	0.00329345
12.8379	12.6945	-0.000500873	0.00217099
12.8383	12.695	0.000766123	0.0027596
12.8388	12.6954	-8.69417e-05	0.00366163
12.8393	12.6959	-0.00108172	0.00402922
12.8397	12.6964	-0.000503477	0.00335122
12.8402	12.6969	-0.000383769	0.00223434
12.8407	12.6973	0.000662359	0.00279885
12.8412	12.6978	-6.44695e-05	0.00382977
12.8416	12.6983	-0.00114281	0.00402299
12.8421	12.6987	-0.000485803	0.00325437
12.8426	12.6992	-0.000379168	0.00210979
12.8431	12.6997	0.000676895	0.00287653
12.8435	12.7001	6.81692e-06	0.00371473
12.844	12.7006	-0.00125404	0.00404151
12.8445	12.7011	-0.000400445	0.00329813
12.8449	12.7016	-0.000319617	0.0021828
12.8454	12.702	0.000740316	0.00276164
12.8459	12.7025	7.94409e-05	0.00393049
12.8464	12.703	-0.00106665	0.00398654
12.8468	12.7034	-0.000390172	0.00314678
12.8473	12.7039	-0.00025393	0.00211306
12.8478	12.7044	0.000514846	0.00281581
12.8482	12.7049	0.000156399	0.00387648
12.8487	12.7054	-0.00127398	0.00391991
12.8492	12.7058	-0.000422382	0.0030691
12.8497	12.7063	-0.000241856	0.00219198
12.8501	12.7068	0.000599205	0.00293274
12.8506	12.7073	3.34267e-05	0.00391197
12.8511	12.7078	-0.00129879	0.00398482
12.8516	12.7082	-0.000396307	0.00302911
12.852	12.7087	-0.000118955	0.00207103
12.8525	12.7092	0.000584866	0.00289661
12.853	12.7096	0.000173538	0.00393237
12.8534	12.7101	-0.00133154	0.00386467
12.8539	12.7106	-0.000393507	0.00304419
12.8544	12.711	3.0359e-05	0.00214903
12.8549	12.7115	0.000386006	0.00285366
12.8553	12.712	0.000113452	0.004077
12.8558	12.7125	-0.00135148	0.00391025
12.8563	12.7129	-0.000221988	0.00301976
12.8567	12.7134	9.50465e-05	0.0021696
12.8572	12.7139	0.000462162	0.00296028
12.8577	12.7143	8.40423e-05	0.0040566
12.8582	12.7148	-0.00145677	0.00375332
12.8586	12.7153	-0.000422917	0.0029511
12.8591	12.7158	0.000111918	0.00215306
12.8596	12.7162	0.00045476	0.00284743
12.8601	12.7167	0.000124724	0.00416
12.8605	12.7172	-0.00152173	0.00382264
12.861	12.7177	-0.000298143	0.00293258
12.8615	12.7181	0.000109386	0.00217485
12.8619	12.7186	0.000294709	0.00292807
12.8624	12.7191	0.000199613	0.00402857
12.8629	12.7195	-0.00135194	0.00375537
12.8634	12.72	-0.000297876	0.00285146
12.8638	12.7205	0.000168402	0.00219886
12.8643	12.7209	0.000275037	0.00290348
12.8648	12.7214	0.000225153	0.00424793
12.8652	12.7219	-0.00142176	0.00373325
12.8657	12.7224	-0.000295343	0.00278623
12.8662	12.7228	0.000176338	0.00223525
12.8667	12.7233	0.000217216	0.00298396
12.8671	12.7237	0.000239492	0.00423875
12.8676	12.7242	-0.00146245	0.00354879
12.8681	12.7247	-0.000320883	0.00290922
12.8686	12.7252	0.0001554	0.00227949
12.869	12.7256	0.000241026	0.00302427
12.8695	12.7261	0.000205481	0.00415919
12.87	12.7266	-0.00149359	0.0035687
12.8704	12.7271	-0.000367967	0.00273501
12.8709	12.7275	0.000213952	0.0023008
12.8714	12.728	0.000130057	0.0030691
12.8719	12.7285	0.000219552	0.00421524
12.8723	12.729	-0.00137241	0.00353584
12.8728	12.7294	-0.0002644	0.00282204
12.8733	12.7299	0.000422283	0.00237258
12.8737	12.7304	0.000102181	0.00296839
12.8742	12.7308	0.000117322	0.00421245
12.8747	12.7313	-0.00124691	0.0036291
12.8752	12.7318	-0.000412911	0.00275418
12.8756	12.7323	0.000456294	0.00225147
12.8761	12.7327	3.98294e-05	0.00305369
12.8766	12.7332	5.39012e-05	0.00423752
12.8771	12.7337	-0.00123644	0.00354535
12.8775	12.7341	-0.00034389	0.00263398
12.878	12.7346	0.000473433	0.00238815
12.8785	12.7351	0.000153064	0.00316316
12.8789	12.7356	2.06212e-05	0.00418926
12.8794	12.7361	-0.00118015	0.00356215
12.8799	12.7365	-0.000511343	0.00255007
12.8804	12.737	0.000545255	0.0022899
12.8808	12.7375	7.79071e-05	0.00311597
12.8813	12.738	-8.8743e-05	0.00426194
12.8818	12.7385	-0.00116662	0.00345381
12.8822	12.7389	-0.000468663	0.00259473
12.8827	12.7394	0.0006925	0.00235841
12.8832	12.7398	-1.97216e-05	0.00316112
12.8837	12.7403	-0.000164167	0.0042322
12.8841	12.7408	-0.00114948	0.00364794
12.8846	12.7413	-0.000446191	0.00254851
12.8851	12.7418	0.00059694	0.00240683
12.8856	12.7422	4.01681e-06	0.00316702
12.886	12.7427	-0.00016777	0.00411903
12.8865	12.7431	-0.00114208	0.00368203
12.887	12.7436	-0.000515213	0.00245214
12.8874	12.7441	0.000708106	0.00241945
12.8879	12.7446	-1.38539e-05	0.00312842
12.8884	12.745	-0.000205312	0.00417369
12.8889	12.7455	-0.00104365	0.0035388
12.8893	12.746	-0.000490404	0.00255318
12.8898	12.7465	0.000787132	0.00235685
12.8903	12.7469	-0.000135025	0.0032279
12.8907	12.7474	-0.000310414	0.00407388
12.8912	12.7479	-0.000902802	0.00349987
12.8917	12.7484	-0.000646121	0.00242191
12.8922	12.7488	0.000892965	0.00247829
12.8926	12.7493	-0.000161099	0.00333672
12.8931	12.7497	-0.000339556	0.00415935
12.8936	12.7502	-0.000911203	0.00351872
12.8941	12.7507	-0.000571429	0.00232555
12.8945	12.7512	0.000894499	0.00243625
12.895	12.7516	-0.00011175	0.00330575
12.8955	12.7521	-0.000364632	0.0041673
12.8959	12.7526	-0.000860587	0.00348946
12.8964	12.753	-0.000595506	0.00241757
12.8969	12.7535	0.000962254	0.00258432
12.8974	12.754	-4.91315e-05	0.00336163
12.8978	12.7544	-0.000479935	0.0041637
12.8983	12.7549	-0.000848851	0.0034521
12.8988	12.7554	-0.000553825	0.00222484
