# 1304     AichiSR QXAFS
# Start     : 8.9544
# End       : 9.0544
# Dir       : Backward
# Points    : 300
# ScanTime  : 1.01549
# Date      : 13.04.23 22:33
# Ring Cur. : 0.9[mA]
12.7557	12.6119	-0.00106665	0.00349987
12.7562	12.6123	-0.000539486	0.00236061
12.7566	12.6128	0.000846148	0.00249853
12.7571	12.6132	-8.31427e-05	0.00332411
12.7576	12.6137	-0.00023499	0.00417771
12.7581	12.6142	-0.0010219	0.00350659
12.7585	12.6146	-0.000473532	0.00233087
12.759	12.6151	0.00085182	0.00252049
12.7595	12.6156	-4.78652e-05	0.00328706
12.7599	12.6161	-0.000345156	0.0042358
12.7604	12.6165	-0.000992227	0.00357944
12.7609	12.617	-0.000616177	0.00238659
12.7614	12.6175	0.000910105	0.00265094
12.7618	12.618	-0.000116887	0.00342719
12.7623	12.6185	-0.000435722	0.00427161
12.7628	12.6189	-0.000878993	0.00345317
12.7632	12.6194	-0.000610041	0.00230112
12.7637	12.6199	0.000900367	0.00256375
12.7642	12.6203	2.11562e-05	0.00341145
12.7647	12.6208	-0.000459461	0.00426662
12.7651	12.6213	-0.000763226	0.00348431
12.7656	12.6218	-0.000596772	0.00218141
12.7661	12.6222	0.00101107	0.00258104
12.7666	12.6227	-0.000114086	0.00345193
12.767	12.6232	-0.00058937	0.00412354
12.7675	12.6236	-0.000786697	0.00347873
12.768	12.6241	-0.000686	0.00224057
12.7684	12.6246	0.00104661	0.00267897
12.7689	12.6251	-8.18764e-05	0.00342998
12.7694	12.6255	-0.000657589	0.0042213
12.7699	12.626	-0.000833513	0.00343448
12.7703	12.6265	-0.000579365	0.00222623
12.7708	12.627	0.00103948	0.00274591
12.7713	12.6275	-1.56552e-05	0.00358927
12.7717	12.6279	-0.000727146	0.0040879
12.7722	12.6284	-0.000758821	0.00347824
12.7727	12.6289	-0.000604441	0.00215354
12.7732	12.6293	0.00098346	0.00271805
12.7736	12.6298	-7.16748e-05	0.00355936
12.7741	12.6303	-0.000884129	0.00413009
12.7746	12.6307	-0.000545086	0.00336368
12.7751	12.6312	-0.000641984	0.00216879
12.7755	12.6317	0.000970654	0.00266356
12.776	12.6322	-7.36724e-05	0.00364327
12.7765	12.6326	-0.000871324	0.00431053
12.7769	12.6331	-0.00064325	0.00340523
12.7774	12.6336	-0.00064712	0.00212364
12.7779	12.634	0.000965054	0.00271445
12.7784	12.6345	-8.52115e-06	0.00359952
12.7788	12.635	-0.000842716	0.0040865
12.7793	12.6355	-0.000502675	0.00329813
12.7798	12.6359	-0.00067373	0.00218715
12.7802	12.6364	0.000841083	0.00286375
12.7807	12.6369	-4.29962e-05	0.00359812
12.7812	12.6374	-0.000913539	0.00408961
12.7817	12.6378	-0.000549955	0.00324921
12.7821	12.6383	-0.000511878	0.00216863
12.7826	12.6388	0.000901901	0.00275353
12.7831	12.6392	-9.94796e-05	0.00371226
12.7836	12.6397	-0.00107892	0.00408183
12.784	12.6402	-0.000495808	0.00328395
12.7845	12.6406	-0.000509077	0.00200113
12.785	12.6411	0.000778661	0.00283589
12.7854	12.6416	-8.26077e-05	0.00377389
12.7859	12.642	-0.0011188	0.00405724
12.7864	12.6425	-0.00031168	0.00326027
12.7869	12.643	-0.000386373	0.0020648
12.7873	12.6434	0.000817541	0.00285194
12.7878	12.6439	-0.000104349	0.00389795
12.7883	12.6444	-0.00110906	0.00395867
12.7887	12.6448	-0.000427982	0.0031907
12.7892	12.6453	-0.000410379	0.00208472
12.7897	12.6458	0.000712707	0.00275198
12.7902	12.6463	7.58383e-05	0.00386419
12.7906	12.6468	-0.00114641	0.00392442
12.7911	12.6473	-0.000439057	0.00311769
12.7916	12.6477	-0.000326287	0.00210012
12.7921	12.6482	0.000600739	0.00280228
12.7925	12.6487	1.83561e-05	0.00388787
12.793	12.6491	-0.00113847	0.00393049
12.7935	12.6496	-0.000362831	0.00307565
12.7939	12.6501	-0.000242926	0.002185
12.7944	12.6506	0.000667495	0.00295233
12.7949	12.651	4.31645e-05	0.00397457
12.7954	12.6515	-0.00129112	0.00403963
12.7958	12.652	-0.000384304	0.00313948
12.7963	12.6525	-0.000220187	0.00204596
12.7968	12.6529	0.0005808	0.00290627
12.7972	12.6534	0.000107584	0.00386977
12.7977	12.6539	-0.00123284	0.00389237
12.7982	12.6543	-0.000333688	0.0030006
12.7987	12.6548	-9.51996e-06	0.00216444
12.7991	12.6553	0.000501506	0.00282564
12.7996	12.6558	0.000112917	0.00409208
12.8001	12.6562	-0.00134301	0.00390295
12.8006	12.6567	-0.000447458	0.0030559
12.801	12.6572	-3.12608e-05	0.00216444
12.8015	12.6577	0.000574397	0.00286424
12.802	12.6582	0.000161803	0.00399185
12.8024	12.6586	-0.00142863	0.00384051
12.8029	12.6591	-0.000290742	0.00309712
12.8034	12.6595	4.44308e-05	0.00225098
12.8039	12.66	0.000364265	0.00289972
12.8043	12.6605	0.000288574	0.00405896
12.8048	12.661	-0.00146011	0.00385173
12.8053	12.6614	-0.000292008	0.00294004
12.8057	12.6619	6.3104e-05	0.00222656
12.8062	12.6624	0.000416415	0.00284244
12.8067	12.6628	0.000233357	0.00405643
12.8072	12.6633	-0.00158281	0.0037398
12.8076	12.6638	-0.000331352	0.00287202
12.8081	12.6642	5.0031e-05	0.00217797
12.8086	12.6647	0.000268634	0.00286686
12.8091	12.6652	0.000137726	0.00413616
12.8095	12.6657	-0.00156981	0.00370071
12.81	12.6661	-0.000315283	0.0029184
12.8105	12.6666	0.000207817	0.00203334
12.8109	12.6671	0.000388271	0.00295577
12.8114	12.6676	0.000257898	0.00420606
12.8119	12.668	-0.00148358	0.00372702
12.8124	12.6685	-0.000293078	0.00301944
12.8128	12.669	0.0002643	0.00230391
12.8133	12.6694	0.000225955	0.00302846
12.8138	12.6699	0.000266833	0.00423204
12.8142	12.6704	-0.00149512	0.00381855
12.8147	12.6708	-0.000352629	0.00274059
12.8152	12.6713	0.00031085	0.00223074
12.8157	12.6718	0.000120319	0.00292324
12.8161	12.6722	6.71704e-05	0.00429136
12.8166	12.6727	-0.00147698	0.0036867
12.8171	12.6732	-0.000325752	0.00275853
12.8176	12.6736	0.000331253	0.00231981
12.818	12.6741	6.71704e-05	0.00306164
12.8185	12.6746	0.000200879	0.00419098
12.819	12.6751	-0.00146444	0.00366802
12.8194	12.6756	-0.000335954	0.00272068
12.8199	12.676	0.000504573	0.00226424
12.8204	12.6765	0.000188876	0.00309933
12.8209	12.677	0.000140329	0.00433668
12.8213	12.6775	-0.00130059	0.00353241
12.8218	12.678	-0.000355697	0.00262791
12.8223	12.6784	0.000390073	0.00220492
12.8227	12.6789	1.04195e-05	0.00304886
12.8232	12.6794	5.72363e-05	0.00431365
12.8237	12.6798	-0.00130006	0.00363253
12.8242	12.6803	-0.000412448	0.00261529
12.8246	12.6808	0.000533252	0.00228711
12.8251	12.6813	2.54901e-05	0.00317202
12.8256	12.6817	5.39012e-05	0.00424219
12.8261	12.6822	-0.00128192	0.00362147
12.8265	12.6827	-0.000460727	0.00256359
12.827	12.6831	0.000588469	0.00234284
12.8275	12.6836	7.10405e-05	0.00313481
12.8279	12.6841	-4.32637e-05	0.00420187
12.8284	12.6845	-0.00116788	0.00367736
12.8289	12.685	-0.000476868	0.00252671
12.8294	12.6855	0.000701239	0.00239593
12.8298	12.686	-8.26077e-05	0.00315505
12.8303	12.6865	-6.9071e-05	0.00422678
12.8308	12.6869	-0.00116482	0.00360295
12.8312	12.6874	-0.000372301	0.00249493
12.8317	12.6879	0.000666693	0.00233833
12.8322	12.6884	5.67013e-05	0.00331165
12.8327	12.6888	-0.000146296	0.00439272
12.8331	12.6893	-0.00113187	0.00359345
12.8336	12.6898	-0.000456928	0.00246567
12.8341	12.6902	0.000762788	0.0025032
12.8346	12.6907	-4.11604e-06	0.00334623
12.835	12.6912	-0.000269001	0.00418442
12.8355	12.6917	-0.00108966	0.00370383
12.836	12.6921	-0.000548421	0.00246771
12.8364	12.6926	0.000860755	0.00238504
12.8369	12.693	-3.17116e-07	0.00328084
12.8374	12.6935	-0.000203315	0.00423548
12.8379	12.694	-0.00102137	0.00356591
12.8383	12.6944	-0.000478669	0.00242568
12.8388	12.6949	0.000851017	0.00251581
12.8393	12.6954	-0.000156766	0.0033663
12.8397	12.6959	-0.000356963	0.00431456
12.8402	12.6964	-0.000927343	0.00355592
12.8407	12.6968	-0.000548956	0.0022622
12.8412	12.6973	0.000943046	0.00248516
12.8416	12.6978	-3.09933e-05	0.00339449
12.8421	12.6983	-0.00043212	0.00419999
12.8426	12.6987	-0.000888195	0.00353429
12.8431	12.6992	-0.000528018	0.00237135
12.8435	12.6996	0.00104248	0.00258072
12.844	12.7001	-7.88088e-05	0.00332255
12.8445	12.7006	-0.000556358	0.00418738
12.8449	12.7011	-0.000832978	0.00339138
12.8454	12.7015	-0.00057603	0.00221426
12.8459	12.702	0.000954852	0.00271166
12.8464	12.7025	-0.000105615	0.00346488
12.8468	12.7029	-0.000519814	0.00429185
12.8473	12.7034	-0.000803301	0.0035111
12.8478	12.7039	-0.000613376	0.00220992
12.8482	12.7043	0.00103841	0.0026103
12.8487	12.7048	-9.56807e-05	0.00348914
12.8492	12.7053	-0.000575031	0.00422474
12.8497	12.7058	-0.000686535	0.00355797
12.8501	12.7063	-0.000717408	0.00220492
12.8506	12.7068	0.00100827	0.00262587
12.8511	12.7072	-9.72145e-05	0.00345849
12.8516	12.7077	-0.000695667	0.00415763
12.852	12.7082	-0.000677529	0.0033808
12.8525	12.7087	-0.000657393	0.00214093
12.853	12.7091	0.00115885	0.00267585
12.8534	12.7096	-0.000161099	0.00347513
12.8539	12.7101	-0.00079977	0.00408961
12.8544	12.7105	-0.000680596	0.00338826
12.8549	12.711	-0.000645586	0.00224475
12.8553	12.7115	0.000950715	0.00267618
12.8558	12.712	-0.000108219	0.00352543
12.8563	12.7124	-0.000842984	0.00419205
12.8567	12.7129	-0.000519279	0.00338327
12.8572	12.7134	-0.000769557	0.00208209
12.8577	12.7138	0.000944116	0.00267274
12.8582	12.7143	-8.16089e-05	0.0036808
12.8586	12.7148	-0.000865188	0.00416091
12.8591	12.7153	-0.00060824	0.0034362
12.8596	12.7157	-0.000719477	0.00213158
12.8601	12.7162	0.000985992	0.00276738
12.8605	12.7167	-0.000144763	0.00368982
12.861	12.7172	-0.000868256	0.00415779
12.8615	12.7176	-0.000517745	0.00331074
12.8619	12.7181	-0.000516747	0.00214715
12.8624	12.7186	0.000915437	0.00279573
12.8629	12.719	-1.63865e-05	0.0037675
12.8634	12.7195	-0.000992227	0.004136
12.8638	12.72	-0.000479133	0.00333361
12.8643	12.7204	-0.000444123	0.00213969
12.8648	12.7209	0.000933308	0.00285957
12.8652	12.7214	2.03537e-05	0.003841
12.8657	12.7219	-0.000984629	0.00408306
12.8662	12.7223	-0.000556626	0.00319972
12.8667	12.7228	-0.000508007	0.00218436
12.8671	12.7232	0.000842082	0.00288448
12.8676	12.7237	-0.000102083	0.00383863
12.8681	12.7242	-0.00120063	0.0040647
12.8686	12.7246	-0.000399642	0.00331836
12.869	12.7251	-0.00033269	0.00212831
12.8695	12.7256	0.000725245	0.00272149
12.87	12.7261	8.45773e-05	0.00385001
12.8704	12.7266	-0.00113541	0.00415656
12.8709	12.727	-0.000357694	0.00312842
12.8714	12.7275	-0.000436721	0.00211585
12.8719	12.728	0.000734448	0.002785
12.8723	12.7285	7.99759e-05	0.00382215
12.8728	12.7289	-0.00125891	0.00394622
12.8733	12.7294	-0.000399375	0.0032329
12.8737	12.7299	-0.000305812	0.00217223
12.8742	12.7303	0.000617344	0.00281737
12.8747	12.7308	-3.25271e-05	0.00393081
12.8752	12.7313	-0.00124638	0.00397596
12.8756	12.7318	-0.000299677	0.00309278
12.8761	12.7322	-9.97471e-05	0.00208381
12.8766	12.7327	0.00064522	0.00294847
12.8771	12.7332	7.05055e-05	0.004018
12.8775	12.7336	-0.00133794	0.00391803
12.878	12.7341	-0.00039991	0.00316702
12.8785	12.7346	-0.000186443	0.00219526
12.8789	12.7351	0.000506107	0.00287218
12.8794	12.7356	9.68478e-05	0.003959
12.8799	12.736	-0.00126045	0.0039758
12.8804	12.7365	-0.000246261	0.00307286
12.8808	12.737	-8.18764e-05	0.00209733
12.8813	12.7375	0.000522515	0.00279868
12.8818	12.738	0.000101449	0.00404012
12.8822	12.7384	-0.00148925	0.00390263
12.8827	12.7389	-0.000289743	0.00293553
12.8832	12.7394	-2.17904e-05	0.00210979
12.8837	12.7398	0.000500507	0.00287653
12.8841	12.7403	0.000291641	0.00411903
12.8846	12.7408	-0.00137448	0.00380782
12.8851	12.7412	-0.000222987	0.00305557
12.8856	12.7417	0.000111918	0.00212896
12.886	12.7422	0.000475966	0.0028295
12.8865	12.7426	0.000208281	0.00405348
12.887	12.7431	-0.00155394	0.00370866
12.8874	12.7436	-0.0003705	0.00294643
12.8879	12.7441	2.2155e-06	0.00223418
12.8884	12.7445	0.000356329	0.0028921
12.8889	12.745	0.000113185	0.00412215
12.8893	12.7455	-0.00145037	0.00384379
12.8898	12.746	-0.000238592	0.00304328
12.8903	12.7464	0.000109118	0.00227015
12.8907	12.7469	0.000397474	0.00299469
12.8912	12.7474	0.000239492	0.00420982
12.8917	12.7479	-0.00146878	0.00375242
12.8922	12.7483	-0.00023219	0.00285489
12.8926	12.7488	0.000303181	0.00235857
12.8931	12.7493	0.000241828	0.00292324
12.8936	12.7497	0.000159199	0.00427284
12.8941	12.7502	-0.00155674	0.00371768
12.8945	12.7507	-0.00033829	0.0027319
12.895	12.7511	0.000348125	0.00235111
12.8955	12.7516	0.000144128	0.00290783
12.8959	12.7521	0.000188341	0.00422023
12.8964	12.7525	-0.00149792	0.00378135
12.8969	12.753	-0.000309415	0.00288727
12.8974	12.7535	0.000374734	0.00214543
12.8978	12.7539	0.000229023	0.00294052
12.8983	12.7544	0.000176071	0.00434602
12.8988	12.7549	-0.00139769	0.00365556
