# 1304     AichiSR QXAFS
# Start     : 8.9544
# End       : 9.0544
# Dir       : Forward
# Points    : 300
# ScanTime  : 1.01549
# Date      : 13.04.24 00:34
# Ring Cur. : 1[mA]
12.7557	12.7562	-0.00137268	0.00360993
12.7562	12.7558	-0.000487069	0.00264676
12.7566	12.7553	0.000311581	0.00227933
12.7571	12.7548	3.34267e-05	0.0030042
12.7576	12.7543	0.000115253	0.0042889
12.7581	12.7539	-0.00135681	0.00360918
12.7585	12.7534	-0.000360031	0.00265577
12.759	12.7529	0.00054299	0.00235766
12.7595	12.7525	-4.73302e-05	0.00315768
12.7599	12.752	6.00364e-05	0.00435643
12.7604	12.7516	-0.00136808	0.00352355
12.7609	12.7511	-0.000392241	0.00260874
12.7614	12.7506	0.000542455	0.00235357
12.7618	12.7501	3.54955e-05	0.00318168
12.7623	12.7497	-7.08723e-05	0.00430414
12.7628	12.7492	-0.00119629	0.00360247
12.7632	12.7487	-0.000481469	0.00257589
12.7637	12.7483	0.000527116	0.00243985
12.7642	12.7478	3.31592e-05	0.00319242
12.7647	12.7473	-0.000143496	0.00428686
12.7651	12.7469	-0.00123284	0.00355018
12.7656	12.7464	-0.000425984	0.002461
12.7661	12.7459	0.000700169	0.00244592
12.7666	12.7454	-7.39399e-05	0.00315505
12.767	12.7449	-0.000266932	0.00427145
12.7675	12.7445	-0.00115642	0.00356961
12.768	12.744	-0.000442589	0.00239298
12.7684	12.7435	0.00067743	0.00242707
12.7689	12.7431	-9.90158e-05	0.00317841
12.7694	12.7426	-0.000252397	0.00420015
12.7699	12.7421	-0.00108813	0.00354707
12.7703	12.7417	-0.000525414	0.00237307
12.7708	12.7412	0.00068303	0.00235374
12.7713	12.7407	-0.000118955	0.00318431
12.7717	12.7402	-0.000385374	0.0043429
12.7722	12.7398	-0.00104211	0.00361385
12.7727	12.7393	-0.0005799	0.00235406
12.7732	12.7388	0.000775326	0.00241822
12.7736	12.7384	-0.000131957	0.00332459
12.7741	12.7379	-0.000365363	0.00415828
12.7746	12.7374	-0.00105772	0.00348651
12.7751	12.7369	-0.000500873	0.0023838
12.7755	12.7365	0.000829812	0.00252687
12.776	12.736	-3.09933e-05	0.00335573
12.7765	12.7355	-0.000415515	0.0041637
12.7769	12.735	-0.00094755	0.00342407
12.7774	12.7345	-0.000568896	0.00233333
12.7779	12.7341	0.000841815	0.00254744
12.7784	12.7336	-0.00010055	0.00329796
12.7788	12.7331	-0.000495808	0.00427005
12.7793	12.7326	-0.000993297	0.0034952
12.7798	12.7322	-0.000596505	0.00222811
12.7802	12.7317	0.000911103	0.00256752
12.7807	12.7312	-6.40057e-05	0.00333705
12.7812	12.7308	-0.000495541	0.00423006
12.7817	12.7303	-0.00085265	0.00345596
12.7821	12.7298	-0.000641252	0.00227981
12.7826	12.7293	0.000994196	0.00267258
12.7831	12.7289	-6.04031e-05	0.00358862
12.7836	12.7284	-0.000561227	0.00406626
12.784	12.7279	-0.000850118	0.00353257
12.7845	12.7275	-0.000719477	0.00225753
12.785	12.727	0.00094738	0.00267322
12.7854	12.7265	-9.87483e-05	0.00339449
12.7859	12.726	-0.00073815	0.00416418
12.7864	12.7256	-0.000727681	0.00345988
12.7869	12.7251	-0.000679598	0.00214141
12.7873	12.7246	0.00102974	0.00263725
12.7878	12.7241	-0.000133491	0.0035097
12.7883	12.7237	-0.000774159	0.00425244
12.7887	12.7232	-0.000774961	0.00345038
12.7892	12.7227	-0.000622847	0.00210077
12.7897	12.7223	0.000879625	0.00262619
12.7902	12.7218	-9.23456e-05	0.00351405
12.7906	12.7214	-0.000801303	0.00399202
12.7911	12.7209	-0.000765223	0.00339433
12.7916	12.7204	-0.000727877	0.00215027
12.7921	12.7199	0.000938177	0.00270232
12.7925	12.7195	-0.000231655	0.00345612
12.793	12.719	-0.000877191	0.00409896
12.7935	12.7185	-0.000658588	0.00331074
12.7939	12.7181	-0.000604174	0.00218312
12.7944	12.7176	0.000881961	0.00275386
12.7949	12.7171	-0.000245263	0.00347389
12.7954	12.7167	-0.000923206	0.00400898
12.7958	12.7162	-0.000648921	0.0033772
12.7963	12.7157	-0.000724613	0.00208692
12.7968	12.7152	0.000883959	0.00270978
12.7972	12.7147	-3.65935e-05	0.00374914
12.7977	12.7143	-0.000894063	0.00405102
12.7982	12.7138	-0.000586303	0.00331665
12.7987	12.7133	-0.000517478	0.00213142
12.7991	12.7129	0.000777395	0.00271461
12.7996	12.7124	-0.000105882	0.0036386
12.8001	12.7119	-0.00104211	0.00405643
12.8006	12.7115	-0.000514678	0.00334311
12.801	12.711	-0.000514945	0.00214839
12.8015	12.7105	0.000846683	0.00275509
12.802	12.71	-0.000100817	0.00375537
12.8024	12.7096	-0.001129	0.00398686
12.8029	12.7091	-0.000558159	0.00321373
12.8034	12.7086	-0.000510076	0.00217158
12.8039	12.7082	0.000774059	0.00276164
12.8043	12.7077	-7.85413e-05	0.0036699
12.8048	12.7072	-0.00113648	0.00391664
12.8053	12.7067	-0.000518548	0.00315161
12.8057	12.7062	-0.000392776	0.0021646
12.8062	12.7058	0.000684831	0.00278295
12.8067	12.7053	-0.000125358	0.00365761
12.8072	12.7048	-0.0013182	0.00394933
12.8076	12.7043	-0.000501943	0.0031113
12.8081	12.7038	-0.000407579	0.00231358
12.8086	12.7034	0.000701703	0.00271617
12.8091	12.7029	-8.28752e-05	0.0037734
12.8095	12.7024	-0.00111573	0.00401054
12.81	12.702	-0.000398108	0.00313293
12.8105	12.7015	-0.000376903	0.00211339
12.8109	12.701	0.000651622	0.0026788
12.8114	12.7005	-3.6861e-05	0.00393376
12.8119	12.7001	-0.00117835	0.00387181
12.8124	12.6996	-0.000472997	0.00303066
12.8128	12.6992	-0.000345691	0.00218033
12.8133	12.6987	0.000568797	0.00273141
12.8138	12.6982	-1.48527e-05	0.00382682
12.8142	12.6978	-0.00126532	0.0040057
12.8147	12.6973	-0.000442321	0.00319226
12.8152	12.6968	-0.000297145	0.00213609
12.8157	12.6963	0.000468297	0.00284491
12.8161	12.6959	5.3543e-06	0.00398203
12.8166	12.6954	-0.0013402	0.00388115
12.8171	12.6949	-0.000430853	0.00299518
12.8176	12.6944	-0.000180575	0.0021297
12.818	12.6939	0.000435355	0.00298224
12.8185	12.6935	-3.96611e-05	0.00392442
12.819	12.693	-0.00135121	0.00388287
12.8194	12.6926	-0.000387639	0.00288448
12.8199	12.6921	-9.0348e-05	0.00214715
12.8204	12.6916	0.00034866	0.00279369
12.8209	12.6912	0.000134925	0.00410207
12.8213	12.6907	-0.00149945	0.00377963
12.8218	12.6902	-0.000322149	0.00292168
12.8223	12.6897	1.80886e-05	0.00218903
12.8227	12.6893	0.000323851	0.00280352
12.8232	12.6888	-6.71985e-06	0.00415951
12.8237	12.6884	-0.00157848	0.00379552
12.8242	12.6879	-0.000394042	0.00301133
12.8246	12.6874	1.09545e-05	0.00222951
12.8251	12.6869	0.000290375	0.00280352
12.8256	12.6864	2.269e-05	0.00407732
12.8261	12.686	-0.00153093	0.00375005
12.8265	12.6855	-0.000310681	0.00289972
12.827	12.685	0.000117519	0.00219681
12.8275	12.6845	0.000278105	0.00286284
12.8279	12.684	0.000112917	0.00403668
12.8284	12.6836	-0.00146011	0.00371956
12.8289	12.6831	-0.000364365	0.00284679
12.8294	12.6826	0.000183009	0.00214715
12.8298	12.6822	0.000259966	0.00290439
12.8303	12.6817	0.000103251	0.0042635
12.8308	12.6812	-0.00155574	0.0037144
12.8312	12.6808	-0.000255197	0.0028594
12.8317	12.6803	0.000173271	0.0022359
12.8322	12.6798	0.000212686	0.00284523
12.8327	12.6793	7.48395e-05	0.00423843
12.8331	12.6789	-0.00142836	0.0036109
12.8336	12.6784	-0.000422114	0.0029125
12.8341	12.6779	0.000153599	0.00224787
12.8346	12.6775	0.000259164	0.00295749
12.835	12.677	0.000107584	0.00409101
12.8355	12.6765	-0.00149639	0.00361632
12.836	12.676	-0.000403976	0.00279058
12.8364	12.6755	0.000222353	0.00223311
12.8369	12.675	6.64391e-05	0.00297617
12.8374	12.6746	0.000142862	0.00415951
12.8379	12.6741	-0.00144397	0.00357616
12.8383	12.6736	-0.000361297	0.00278967
12.8388	12.6731	0.00028144	0.00233554
12.8393	12.6727	1.42897e-05	0.00297134
12.8397	12.6722	3.62268e-05	0.00422507
12.8402	12.6718	-0.0015266	0.0036604
12.8407	12.6713	-0.00038944	0.00269765
12.8412	12.6708	0.000427151	0.00238675
12.8416	12.6703	0.000110652	0.00311253
12.8421	12.6699	-1.15888e-05	0.00424998
12.8426	12.6694	-0.00141816	0.00360279
12.8431	12.669	-0.000492206	0.00270978
12.8435	12.6685	0.00052585	0.00227777
12.844	12.668	6.10352e-05	0.00307737
12.8445	12.6676	-7.77388e-05	0.00428981
12.8449	12.6671	-0.00127985	0.0035651
12.8454	12.6666	-0.000423452	0.00260767
12.8459	12.6661	0.00041415	0.00248575
12.8464	12.6656	4.84972e-05	0.00314055
12.8468	12.6652	-0.000112553	0.00421819
12.8473	12.6647	-0.00124124	0.00361664
12.8478	12.6642	-0.000463063	0.00269421
12.8482	12.6637	0.000482101	0.00230719
12.8487	12.6633	-3.09933e-05	0.00319209
12.8492	12.6628	-0.000161099	0.00424809
12.8497	12.6624	-0.00117275	0.00355608
12.8501	12.6619	-0.000499072	0.00254368
12.8506	12.6614	0.000671829	0.00242519
12.8511	12.6609	-8.64778e-05	0.00333361
12.8516	12.6605	-0.000197447	0.00417057
12.852	12.66	-0.00109859	0.00355174
12.8525	12.6595	-0.000498876	0.00244264
12.853	12.6591	0.000689165	0.00251909
12.8534	12.6586	8.35073e-06	0.00322758
12.8539	12.6581	-0.000205847	0.00427579
12.8544	12.6577	-0.00120343	0.00353724
12.8549	12.6572	-0.000508007	0.00263521
12.8553	12.6567	0.000823944	0.00240404
12.8558	12.6562	-0.000126357	0.0032905
12.8563	12.6558	-0.000285873	0.00427317
12.8567	12.6553	-0.00109353	0.0034675
12.8572	12.6548	-0.000551757	0.00233849
12.8577	12.6543	0.000846951	0.00243609
12.8582	12.6538	-1.74565e-05	0.00317169
12.8586	12.6534	-0.000499875	0.00410035
12.8591	12.6529	-0.00106512	0.00347733
12.8596	12.6524	-0.000522882	0.00242256
12.8601	12.652	0.00072191	0.00244575
12.8605	12.6515	-0.000137094	0.00319709
12.861	12.651	-0.000439521	0.00422458
12.8615	12.6505	-0.00115435	0.00345349
12.8619	12.6501	-0.000722277	0.00232013
12.8624	12.6496	0.000969656	0.00260144
12.8629	12.6491	-0.000121488	0.00343169
12.8634	12.6487	-0.00047273	0.00418442
12.8638	12.6482	-0.000904336	0.00350503
12.8643	12.6477	-0.000671661	0.00228679
12.8648	12.6472	0.000864554	0.00257374
12.8652	12.6468	-0.000139162	0.00341613
12.8657	12.6463	-0.00052108	0.00423892
12.8662	12.6458	-0.000894063	0.00355716
12.8667	12.6453	-0.000551222	0.00235873
12.8671	12.6448	0.000982461	0.00263832
12.8676	12.6444	-0.00018004	0.00347062
12.8681	12.6439	-0.000664527	0.00408011
12.8686	12.6434	-0.000851384	0.00347824
12.869	12.643	-0.000664527	0.00210872
12.8695	12.6425	0.000928243	0.00246771
12.87	12.642	-0.000193577	0.00327445
12.8704	12.6416	-0.000670127	0.00406626
12.8709	12.6411	-0.000743483	0.00337162
12.8714	12.6406	-0.000741217	0.00211167
12.8719	12.6401	0.00100413	0.00269363
12.8723	12.6397	-0.000291741	0.00334885
12.8728	12.6392	-0.000651722	0.00426071
12.8733	12.6388	-0.000848049	0.00335197
12.8737	12.6383	-0.000651989	0.00205218
12.8742	12.6378	0.000972723	0.00263849
12.8747	12.6373	-0.000197911	0.00344275
12.8752	12.6369	-0.00080924	0.00409568
12.8756	12.6364	-0.000731212	0.00335417
12.8761	12.6359	-0.000719744	0.00215461
12.8766	12.6354	0.000855084	0.00266372
12.8771	12.635	-0.000206115	0.00351372
12.8775	12.6345	-0.000868523	0.0041156
12.878	12.634	-0.000660193	0.00329517
12.8785	12.6335	-0.000655521	0.00206775
12.8789	12.6331	0.000978591	0.00261062
12.8794	12.6326	-8.26077e-05	0.0034689
12.8799	12.6322	-0.000952152	0.00397424
12.8804	12.6317	-0.000746818	0.00322495
12.8808	12.6312	-0.000578366	0.00211634
12.8813	12.6307	0.000958651	0.00273706
12.8818	12.6303	-6.29357e-05	0.00358894
12.8822	12.6298	-0.000899735	0.00391401
12.8827	12.6293	-0.000653255	0.00322962
12.8832	12.6289	-0.000567095	0.00214527
12.8837	12.6284	0.000876825	0.00273018
12.8841	12.6279	-0.000211251	0.00358706
12.8846	12.6274	-0.00101197	0.00400275
12.8851	12.627	-0.000609774	0.003276
12.8856	12.6265	-0.000682933	0.0020866
12.886	12.626	0.000826476	0.00265717
12.8865	12.6255	-1.10538e-05	0.00372439
12.887	12.625	-0.00112087	0.0039372
12.8874	12.6246	-0.000515213	0.00326683
12.8879	12.6241	-0.000605707	0.00211634
12.8884	12.6236	0.000809605	0.00270371
12.8889	12.6231	-9.00805e-05	0.00374136
12.8893	12.6227	-0.00103977	0.00389173
12.8898	12.6222	-0.000516747	0.00326478
12.8903	12.6217	-0.000408845	0.00203678
12.8907	12.6213	0.000727314	0.00280131
12.8912	12.6208	-0.000129692	0.00371038
12.8917	12.6203	-0.00131313	0.00395744
12.8922	12.6198	-0.000477866	0.00318012
12.8926	12.6194	-0.000324486	0.00217813
12.8931	12.6189	0.000746986	0.00280803
12.8936	12.6184	7.0238e-05	0.00387616
12.8941	12.618	-0.00118349	0.00399776
12.8945	12.6175	-0.000451524	0.00315071
12.895	12.617	-0.000407846	0.00205546
12.8955	12.6165	0.000543453	0.00283949
12.8959	12.6161	-8.00751e-05	0.0038483
12.8964	12.6156	-0.00126631	0.0039685
12.8969	12.6151	-0.000492473	0.00298658
12.8974	12.6146	-0.000257801	0.00215542
12.8978	12.6142	0.000533448	0.00286998
12.8983	12.6137	-1.41214e-05	0.00389409
12.8988	12.6132	-0.00133	0.00385034
