# 1304     AichiSR QXAFS
# Start     : 8.9544
# End       : 9.0544
# Dir       : Backward
# Points    : 300
# ScanTime  : 1.01549
# Date      : 13.04.23 23:00
# Ring Cur. : 0.9[mA]
12.7557	12.6122	6.35311e-06	0.00318791
12.7562	12.6126	-0.000249329	0.00422941
12.7566	12.6131	-0.00102371	0.00355764
12.7571	12.6135	-0.000451257	0.00249976
12.7576	12.614	0.000848949	0.0024909
12.7581	12.6145	4.16307e-05	0.0033495
12.7585	12.615	-0.000338557	0.00430521
12.759	12.6154	-0.00100476	0.00353617
12.7595	12.6159	-0.000421383	0.00245386
12.7599	12.6164	0.000803202	0.00253777
12.7604	12.6169	-5.98681e-05	0.00323536
12.7609	12.6173	-0.000405242	0.0042372
12.7614	12.6178	-0.000915804	0.00359656
12.7618	12.6183	-0.000522882	0.00239749
12.7623	12.6188	0.000814206	0.00257326
12.7628	12.6192	-5.12003e-05	0.00327756
12.7632	12.6197	-0.00037437	0.00415329
12.7637	12.6202	-0.000876924	0.00349537
12.7642	12.6206	-0.000586035	0.00227917
12.7647	12.6211	0.000892965	0.00265438
12.7651	12.6216	1.5556e-05	0.00335713
12.7656	12.6221	-0.000466131	0.00416746
12.7661	12.6225	-0.00080817	0.00357772
12.7666	12.623	-0.000538951	0.00235406
12.767	12.6235	0.000872758	0.00259457
12.7675	12.6239	-0.000119687	0.0033305
12.768	12.6244	-0.000524148	0.00424809
12.7684	12.6249	-0.000681131	0.00353912
12.7689	12.6254	-0.000576298	0.00227605
12.7694	12.6259	0.000904701	0.00268798
12.7699	12.6263	-4.3995e-05	0.00350814
12.7703	12.6268	-0.000599572	0.00414657
12.7708	12.6273	-0.000804371	0.00340678
12.7713	12.6278	-0.000640521	0.00229023
12.7717	12.6282	0.000912102	0.00264676
12.7722	12.6287	-4.91315e-05	0.0033618
12.7727	12.6292	-0.000713876	0.00419516
12.7732	12.6296	-0.000676263	0.0033364
12.7736	12.6301	-0.000545621	0.00220943
12.7741	12.6306	0.000942047	0.00267897
12.7746	12.6311	-3.83948e-05	0.00349225
12.7751	12.6315	-0.000698271	0.00414862
12.7755	12.632	-0.000657589	0.00335353
12.776	12.6325	-0.000622312	0.00213626
12.7765	12.6329	0.00088016	0.00273797
12.7769	12.6334	-0.000144495	0.0035097
12.7774	12.6339	-0.000724346	0.00411281
12.7779	12.6343	-0.00067933	0.00341875
12.7784	12.6348	-0.000601373	0.00209282
12.7788	12.6353	0.000955584	0.00270388
12.7793	12.6358	-9.66795e-05	0.00351749
12.7798	12.6362	-0.000816374	0.00428407
12.7802	12.6367	-0.00061211	0.00339105
12.7807	12.6372	-0.000703604	0.00217985
12.7812	12.6377	0.000997264	0.00262931
12.7817	12.6381	-0.000200711	0.00352028
12.7821	12.6386	-0.000926273	0.00419017
12.7826	12.6391	-0.000621045	0.00336909
12.7831	12.6395	-0.000709739	0.00206029
12.7836	12.64	0.000892965	0.0027895
12.784	12.6405	-7.26736e-05	0.00367473
12.7845	12.6409	-0.000831712	0.00415124
12.785	12.6414	-0.000489673	0.00322495
12.7854	12.6419	-0.000472266	0.00203678
12.7859	12.6423	0.00089523	0.00273222
12.7864	12.6428	-8.90105e-05	0.00371022
12.7869	12.6433	-0.000951349	0.00406798
12.7873	12.6437	-0.000509077	0.00327257
12.7878	12.6442	-0.000476868	0.00206619
12.7883	12.6447	0.000867622	0.00268691
12.7887	12.6452	-9.51457e-05	0.00369792
12.7892	12.6456	-0.00102551	0.00404774
12.7897	12.6461	-0.000620047	0.00321094
12.7902	12.6466	-0.000471196	0.00207881
12.7906	12.6471	0.000865357	0.00259522
12.7911	12.6476	-0.000126089	0.00370243
12.7916	12.648	-0.00108172	0.00399931
12.7921	12.6485	-0.000488335	0.0031893
12.7925	12.649	-0.000426983	0.00208643
12.793	12.6494	0.000830079	0.00279573
12.7935	12.6499	-2.4858e-05	0.00375521
12.7939	12.6504	-0.0012073	0.00400087
12.7944	12.6509	-0.00048887	0.00317169
12.7949	12.6514	-0.000439789	0.00226392
12.7954	12.6518	0.00075132	0.00270404
12.7958	12.6523	-2.76582e-05	0.00385297
12.7963	12.6528	-0.00126578	0.00399743
12.7968	12.6532	-0.00040551	0.00314587
12.7972	12.6537	-0.000457927	0.00204112
12.7977	12.6542	0.00063088	0.00276787
12.7982	12.6546	6.51728e-05	0.00383616
12.7987	12.6551	-0.00109859	0.00387353
12.7991	12.6556	-0.000420117	0.00317218
12.7996	12.6561	-0.000212785	0.00207865
12.8001	12.6566	0.000611743	0.0028054
12.8006	12.657	6.92392e-05	0.0038206
12.801	12.6575	-0.0012257	0.00400866
12.8015	12.658	-0.000353093	0.00310319
12.802	12.6585	-0.000124092	0.00217362
12.8024	12.6589	0.00057693	0.00282515
12.8029	12.6594	-0.000105882	0.00386075
12.8034	12.6598	-0.00127245	0.00385157
12.8039	12.6603	-0.000413446	0.00314743
12.8043	12.6608	-0.000172371	0.00220615
12.8048	12.6613	0.000461163	0.00285801
12.8053	12.6617	0.000146197	0.00395637
12.8057	12.6622	-0.00130773	0.00389173
12.8062	12.6627	-0.000410379	0.0030836
12.8067	12.6631	-0.000137361	0.00206169
12.8072	12.6636	0.000571597	0.00283605
12.8076	12.6641	5.23673e-05	0.0040924
12.8081	12.6645	-0.00139902	0.00377094
12.8086	12.665	-0.000356696	0.00306427
12.8091	12.6655	-2.58568e-05	0.00214748
12.8095	12.666	0.000526314	0.00296962
12.81	12.6665	2.11562e-05	0.00397301
12.8105	12.6669	-0.00141816	0.00376906
12.8109	12.6674	-0.000333153	0.00302411
12.8114	12.6679	5.55062e-06	0.00215338
12.8119	12.6683	0.000396475	0.00295749
12.8124	12.6688	8.68424e-05	0.00405971
12.8128	12.6693	-0.00136294	0.00374586
12.8133	12.6697	-0.000388905	0.00299732
12.8138	12.6702	8.04397e-05	0.0021923
12.8142	12.6707	0.000384205	0.00282499
12.8147	12.6711	9.50465e-05	0.00413272
12.8152	12.6716	-0.00147725	0.00366974
12.8157	12.6721	-0.00030888	0.00298675
12.8161	12.6725	0.000125723	0.00221673
12.8166	12.673	0.000330789	0.00292635
12.8171	12.6735	7.30382e-05	0.00413584
12.8176	12.6739	-0.00154727	0.00366834
12.818	12.6744	-0.00028334	0.00285301
12.8185	12.6749	0.000169936	0.00221582
12.819	12.6754	0.000295975	0.00293381
12.8194	12.6759	0.000177872	0.00426973
12.8199	12.6764	-0.00149412	0.00359484
12.8204	12.6768	-0.000204314	0.0029497
12.8209	12.6773	0.000150799	0.00222639
12.8213	12.6778	0.000285506	0.00295872
12.8218	12.6783	0.000179406	0.00406175
12.8223	12.6787	-0.00147878	0.00370587
12.8227	12.6792	-0.000287674	0.00290144
12.8232	12.6797	0.000334588	0.0023044
12.8237	12.6801	0.000141596	0.00297789
12.8242	12.6806	0.000270971	0.00419344
12.8246	12.6811	-0.00145831	0.00369137
12.8251	12.6816	-0.000363633	0.00275353
12.8256	12.682	0.00036373	0.00233726
12.8261	12.6825	0.000176338	0.00297633
12.8265	12.683	0.00020928	0.00424031
12.827	12.6834	-0.00136114	0.00367425
12.8275	12.6839	-0.000413446	0.00274264
12.8279	12.6844	0.000298044	0.0021792
12.8284	12.6849	0.000181742	0.00298675
12.8289	12.6853	0.000106318	0.00408478
12.8294	12.6858	-0.00140336	0.00355018
12.8298	12.6863	-0.000401711	0.00268273
12.8303	12.6868	0.000553459	0.00231965
12.8308	12.6873	3.5228e-05	0.00303764
12.8312	12.6877	5.33662e-05	0.00422195
12.8317	12.6882	-0.00130213	0.00354207
12.8322	12.6887	-0.000382039	0.0027428
12.8327	12.6891	0.000351995	0.00231841
12.8331	12.6896	5.87701e-05	0.00303984
12.8336	12.6901	9.99154e-05	0.00416853
12.8341	12.6905	-0.0013338	0.00362566
12.8346	12.691	-0.0004738	0.00269437
12.835	12.6915	0.00056753	0.00247689
12.8355	12.692	1.68223e-05	0.00316235
12.836	12.6924	4.13632e-05	0.0043348
12.8364	12.6929	-0.00125891	0.00359313
12.8369	12.6933	-0.000456393	0.00269625
12.8374	12.6938	0.000577732	0.00244108
12.8379	12.6943	3.49605e-05	0.00305869
12.8383	12.6948	-0.000137825	0.00422007
12.8388	12.6952	-0.00125098	0.00360295
12.8393	12.6957	-0.000390974	0.00264987
12.8397	12.6962	0.00047857	0.00232415
12.8402	12.6967	8.07072e-05	0.00315677
12.8407	12.6971	-0.00010895	0.00420499
12.8412	12.6976	-0.00122644	0.00356371
12.8416	12.6981	-0.000413446	0.0024274
12.8421	12.6986	0.000725513	0.00235562
12.8426	12.699	-2.27892e-05	0.00313793
12.8431	12.6995	-0.000276938	0.00422802
12.8435	12.6999	-0.00117329	0.00357509
12.844	12.7004	-0.000447458	0.0024719
12.8445	12.7009	0.000631148	0.00246616
12.8449	12.7014	-4.01961e-05	0.00316767
12.8454	12.7018	-0.000171105	0.00424826
12.8459	12.7023	-0.000989427	0.0036
12.8464	12.7028	-0.000537417	0.00245977
12.8468	12.7032	0.000706572	0.00245772
12.8473	12.7037	8.2776e-05	0.00325936
12.8478	12.7042	-0.000179309	0.00430865
12.8482	12.7047	-0.00114488	0.00354862
12.8487	12.7051	-0.000478134	0.00240339
12.8492	12.7056	0.000801204	0.00258276
12.8497	12.7061	6.18377e-05	0.00324798
12.8501	12.7066	-0.000387372	0.00426227
12.8506	12.7071	-0.000892797	0.00361074
12.8511	12.7076	-0.000625112	0.00233194
12.8516	12.708	0.000874292	0.00256859
12.852	12.7085	-3.65223e-06	0.00335492
12.8525	12.709	-0.000397841	0.00421556
12.853	12.7094	-0.000914538	0.00357321
12.8534	12.7099	-0.000593704	0.00237897
12.8539	12.7104	0.000889095	0.00255597
12.8544	12.7108	-9.94796e-05	0.00338638
12.8549	12.7113	-0.000410646	0.00420654
12.8553	12.7118	-0.000972091	0.00358239
12.8558	12.7123	-0.000601641	0.00221705
12.8563	12.7127	0.00106935	0.00254728
12.8567	12.7132	-1.35864e-05	0.00339105
12.8572	12.7137	-0.000553023	0.00419221
12.8577	12.7141	-0.000856253	0.00337597
12.8582	12.7146	-0.00053822	0.0022899
12.8586	12.7151	0.000874559	0.00251565
12.8591	12.7156	-3.83948e-05	0.00342375
12.8596	12.716	-0.000526948	0.00414845
12.8601	12.7165	-0.00092094	0.00341629
12.8605	12.717	-0.000666328	0.00223246
12.861	12.7175	0.00099186	0.0025899
12.8615	12.7179	4.46983e-05	0.00350143
12.8619	12.7184	-0.000616444	0.00410797
12.8624	12.7189	-0.000787499	0.00338982
12.8629	12.7193	-0.000545889	0.00220164
12.8634	12.7198	0.000969656	0.00271354
12.8638	12.7203	-5.06653e-05	0.00345177
12.8643	12.7207	-0.000690869	0.00419779
12.8648	12.7212	-0.000719744	0.00342998
12.8652	12.7217	-0.000704941	0.0021719
12.8657	12.7222	0.000978056	0.00256375
12.8662	12.7226	-0.000142694	0.0034879
12.8667	12.7231	-0.00084705	0.00404307
12.8671	12.7235	-0.000768023	0.00339556
12.8676	12.724	-0.000790032	0.00212536
12.8681	12.7245	0.00101333	0.00263832
12.8686	12.725	-0.000174172	0.00348823
12.869	12.7254	-0.000729946	0.00408027
12.8695	12.7259	-0.000667327	0.00336335
12.87	12.7264	-0.000629517	0.00208332
12.8704	12.7269	0.000943046	0.00264192
12.8709	12.7273	-0.000114086	0.00350643
12.8714	12.7278	-0.000926541	0.00404291
12.8719	12.7283	-0.000718942	0.00333533
12.8723	12.7288	-0.000665526	0.00223139
12.8728	12.7292	0.000937178	0.00267446
12.8733	12.7297	-0.000197911	0.00359533
12.8737	12.7302	-0.000865723	0.00410674
12.8742	12.7306	-0.00050041	0.00329345
12.8747	12.7311	-0.000600838	0.00207151
12.8752	12.7316	0.00102641	0.00268519
12.8756	12.7321	-2.4323e-05	0.00366367
12.8761	12.7325	-0.000938347	0.00394064
12.8766	12.733	-0.000589834	0.00323676
12.8771	12.7335	-0.000610309	0.00206791
12.8775	12.7339	0.000932577	0.00267945
12.878	12.7344	-0.000106952	0.00365852
12.8785	12.7349	-0.000965885	0.00410814
12.8789	12.7354	-0.000524683	0.00327182
12.8794	12.7359	-0.00062051	0.00217035
12.8799	12.7363	0.000880695	0.00278967
12.8804	12.7368	-6.04031e-05	0.00362598
12.8808	12.7373	-0.00105058	0.00396039
12.8813	12.7378	-0.000488068	0.00325904
12.8818	12.7383	-0.00061211	0.00213814
12.8822	12.7387	0.000871759	0.0026838
12.8827	12.7392	-0.000113819	0.0037085
12.8832	12.7396	-0.00111347	0.00397768
12.8837	12.7401	-0.000474531	0.00310539
12.8841	12.7406	-0.00045106	0.00214994
12.8846	12.7411	0.000656955	0.00282032
12.8851	12.7416	-6.01356e-05	0.00367768
12.8856	12.742	-0.001128	0.00397752
12.886	12.7425	-0.000484537	0.00324224
12.8865	12.7429	-0.000361564	0.00216863
12.887	12.7434	0.000606607	0.00274903
12.8874	12.7439	-1.0055e-05	0.00386698
12.8879	12.7444	-0.00112187	0.00389516
12.8884	12.7448	-0.000495273	0.00309154
12.8889	12.7453	-0.000331156	0.00209996
12.8893	12.7458	0.000716042	0.00262587
12.8898	12.7463	-1.41214e-05	0.0038986
12.8903	12.7467	-0.00120776	0.0040057
12.8907	12.7472	-0.000477866	0.00312064
12.8912	12.7477	-0.000301478	0.00207398
12.8917	12.7482	0.000575128	0.00282843
12.8922	12.7486	8.12422e-05	0.00391401
12.8926	12.7491	-0.00134481	0.00390155
12.8931	12.7496	-0.000369233	0.00305246
12.8936	12.75	-0.0002644	0.00205997
12.8941	12.7505	0.000553726	0.00285039
12.8945	12.751	-3.65223e-06	0.00392007
12.895	12.7514	-0.00137882	0.00379831
12.8955	12.7519	-0.000399642	0.00305713
12.8959	12.7524	-0.00024726	0.0021842
12.8964	12.7528	0.000564195	0.00279885
12.8969	12.7533	1.78211e-05	0.00392442
12.8974	12.7538	-0.00134607	0.00383568
12.8978	12.7542	-0.000399642	0.00303689
12.8983	12.7547	-0.00011282	0.00219386
12.8988	12.7552	0.000561859	0.00285473
