# 1304     AichiSR QXAFS
# Start     : 8.9544
# End       : 9.0544
# Dir       : Forward
# Points    : 300
# ScanTime  : 1.01549
# Date      : 13.04.23 22:33
# Ring Cur. : 0.9[mA]
12.7557	12.7558	-7.42074e-05	0.00353101
12.7562	12.7553	-0.000647655	0.00420311
12.7566	12.7548	-0.000682398	0.00341424
12.7571	12.7544	-0.000635581	0.00222763
12.7576	12.7539	0.000980392	0.00281721
12.7581	12.7534	-0.00016497	0.00361041
12.7585	12.753	-0.000740682	0.00427424
12.759	12.7525	-0.000587302	0.00336335
12.7595	12.752	-0.000564562	0.00219976
12.7599	12.7516	0.000985992	0.00290439
12.7604	12.7511	-9.02768e-05	0.00364746
12.7609	12.7506	-0.000913004	0.00409396
12.7614	12.7502	-0.000664795	0.00334451
12.7618	12.7497	-0.000518815	0.00214372
12.7623	12.7492	0.000845685	0.00282097
12.7628	12.7488	-6.60034e-05	0.00362893
12.7632	12.7483	-0.000922474	0.00418115
12.7637	12.7478	-0.000475066	0.00340416
12.7642	12.7474	-0.000528214	0.00202276
12.7647	12.7469	0.000934913	0.0028513
12.7651	12.7464	-0.000101013	0.00377201
12.7656	12.7459	-0.000968952	0.00407839
12.7661	12.7455	-0.000473532	0.00329968
12.7666	12.745	-0.000475066	0.00213158
12.767	12.7445	0.000837213	0.00275649
12.7675	12.744	-3.91973e-06	0.00375923
12.768	12.7435	-0.00108126	0.00401907
12.7684	12.7431	-0.000491403	0.00326559
12.7689	12.7426	-0.000418583	0.00227031
12.7694	12.7422	0.000962254	0.00278263
12.7699	12.7417	7.33057e-05	0.00383289
12.7703	12.7412	-0.00107459	0.00407265
12.7708	12.7407	-0.000433386	0.00333533
12.7713	12.7403	-0.000385838	0.00208348
12.7717	12.7398	0.000774862	0.00279885
12.7722	12.7393	7.28418e-05	0.00379101
12.7727	12.7389	-0.00106259	0.00398342
12.7732	12.7384	-0.000433118	0.00316407
12.7736	12.7379	-0.00024833	0.00218264
12.7741	12.7374	0.00073418	0.00281597
12.7746	12.737	0.000108316	0.00388427
12.7751	12.7365	-0.00123437	0.00401193
12.7755	12.736	-0.000353628	0.00313293
12.776	12.7355	-0.000168501	0.00211183
12.7765	12.735	0.000682299	0.00296667
12.7769	12.7346	6.66354e-05	0.00397596
12.7774	12.7341	-0.00117835	0.00394294
12.7779	12.7336	-0.000459996	0.00306271
12.7784	12.7331	-0.000153965	0.00215526
12.7788	12.7327	0.000563197	0.00275026
12.7793	12.7322	4.46983e-05	0.00387304
12.7798	12.7317	-0.00145984	0.00394375
12.7802	12.7313	-0.000360566	0.00309122
12.7807	12.7308	-0.000154697	0.00214141
12.7812	12.7303	0.000547323	0.00283187
12.7817	12.7298	5.0566e-05	0.0039903
12.7821	12.7294	-0.00142123	0.00392909
12.7826	12.7289	-0.000304279	0.00314104
12.7831	12.7284	-3.32584e-05	0.00216756
12.7836	12.728	0.000448357	0.00291094
12.784	12.7275	7.35732e-05	0.004136
12.7845	12.727	-0.00147852	0.00387042
12.785	12.7265	-0.000329622	0.00303984
12.7854	12.7261	-7.36724e-05	0.00209717
12.7859	12.7256	0.00051638	0.00289366
12.7864	12.7251	2.88252e-05	0.00410454
12.7869	12.7246	-0.0015294	0.00376889
12.7873	12.7242	-0.000371302	0.00304403
12.7878	12.7237	2.24225e-05	0.00230112
12.7883	12.7232	0.000425618	0.00291996
12.7887	12.7228	0.000203412	0.00416418
12.7892	12.7223	-0.00143503	0.00377716
12.7897	12.7218	-0.000312215	0.00304279
12.7902	12.7214	5.89664e-05	0.00222188
12.7906	12.7209	0.000433554	0.00288415
12.7911	12.7204	0.000199613	0.00420869
12.7916	12.7199	-0.00148412	0.00378151
12.7921	12.7195	-0.000419849	0.00295872
12.7925	12.719	0.000159466	0.00212101
12.793	12.7186	0.000343523	0.00302534
12.7935	12.7181	0.000181475	0.00409912
12.7939	12.7176	-0.00151406	0.00386886
12.7944	12.7171	-0.000355162	0.00283605
12.7949	12.7167	0.000295244	0.0023212
12.7954	12.7162	0.00032872	0.00303828
12.7958	12.7157	0.000241026	0.00430742
12.7963	12.7152	-0.00135021	0.00362663
12.7968	12.7148	-0.00033829	0.00292372
12.7972	12.7143	0.000256364	0.00233382
12.7977	12.7138	0.000194744	0.00303361
12.7982	12.7133	0.000273236	0.00426178
12.7987	12.7129	-0.00143403	0.00382666
12.7991	12.7124	-0.000330621	0.0028753
12.7996	12.7119	0.000326651	0.00224835
12.8001	12.7115	0.000203679	0.00298863
12.8006	12.711	0.000145395	0.00425448
12.801	12.7105	-0.00144504	0.00368638
12.8015	12.71	-0.00038557	0.00271494
12.802	12.7096	0.000328988	0.00223123
12.8024	12.7091	0.000176071	0.00308172
12.8029	12.7086	0.000122388	0.00431783
12.8034	12.7082	-0.00144604	0.00372579
12.8039	12.7077	-0.000348224	0.00270748
12.8043	12.7072	0.000477767	0.00242911
12.8048	12.7067	4.08282e-05	0.00317636
12.8053	12.7063	0.000155132	0.00416451
12.8057	12.7058	-0.00131467	0.00368965
12.8062	12.7053	-0.000419314	0.00268208
12.8067	12.7048	0.00056086	0.00230907
12.8072	12.7043	0.000116787	0.00310196
12.8076	12.7039	-2.8657e-05	0.00423532
12.8081	12.7034	-0.0013348	0.00362926
12.8086	12.7029	-0.000422649	0.00263553
12.8091	12.7024	0.000480835	0.00235234
12.8095	12.702	-4.04636e-05	0.00317497
12.81	12.7015	-5.96006e-05	0.00412805
12.8105	12.701	-0.00129519	0.00365556
12.8109	12.7006	-0.000420652	0.00264332
12.8114	12.7001	0.000548055	0.00234144
12.8119	12.6996	1.90874e-05	0.00309433
12.8124	12.6992	-2.61243e-05	0.00421024
12.8128	12.6987	-0.00129392	0.00363425
12.8133	12.6982	-0.000435187	0.00259489
12.8138	12.6978	0.000563928	0.00238241
12.8142	12.6973	-2.45905e-05	0.00332427
12.8147	12.6968	-5.6533e-05	0.00429636
12.8152	12.6963	-0.00125224	0.00356371
12.8157	12.6959	-0.000392508	0.00254802
12.8161	12.6954	0.000657223	0.00245542
12.8166	12.6949	-4.9934e-05	0.00319972
12.8171	12.6944	-0.000106417	0.00422195
12.8176	12.694	-0.00108352	0.00346857
12.818	12.6935	-0.000471999	0.00247984
12.8185	12.693	0.000697369	0.00239438
12.819	12.6926	-5.21991e-05	0.00337753
12.8194	12.6921	-0.000188708	0.00420171
12.8199	12.6916	-0.00106105	0.0036291
12.8204	12.6912	-0.00048607	0.00247657
12.8209	12.6907	0.00091904	0.0024945
12.8213	12.6902	6.81692e-07	0.00345317
12.8218	12.6897	-0.000371035	0.00420278
12.8223	12.6893	-0.00108019	0.0036531
12.8227	12.6888	-0.000501943	0.00239266
12.8232	12.6884	0.000861219	0.00255286
12.8237	12.6879	2.08887e-05	0.00327257
12.8242	12.6874	-0.000340822	0.00431939
12.8246	12.6869	-0.000891798	0.00356371
12.8251	12.6865	-0.000554824	0.0024115
12.8256	12.686	0.000860755	0.00261325
12.8261	12.6855	-7.60087e-05	0.00334172
12.8265	12.685	-0.000375904	0.00436207
12.827	12.6845	-0.000947015	0.00356264
12.8275	12.6841	-0.000572231	0.00234939
12.8279	12.6836	0.000957653	0.00257514
12.8284	12.6831	-7.60087e-05	0.0034049
12.8289	12.6826	-0.000479668	0.00426243
12.8294	12.6822	-0.000831445	0.00352774
12.8298	12.6817	-0.000581166	0.00231095
12.8303	12.6812	0.000916971	0.0026561
12.8308	12.6808	-7.14073e-05	0.00341285
12.8312	12.6803	-0.000562029	0.00420638
12.8317	12.6798	-0.00083758	0.00341301
12.8322	12.6793	-0.000660924	0.00231481
12.8327	12.6789	0.00102487	0.00270994
12.8331	12.6784	-0.000104081	0.00333517
12.8336	12.6779	-0.000627716	0.00408618
12.8341	12.6775	-0.000682398	0.0034253
12.8346	12.677	-0.000551757	0.0021719
12.835	12.6765	0.00105121	0.00270543
12.8355	12.676	-6.04031e-05	0.00357182
12.836	12.6756	-0.000783165	0.00415468
12.8364	12.6751	-0.00066706	0.00339868
12.8369	12.6746	-0.000606706	0.00222328
12.8374	12.6741	0.0010154	0.00279385
12.8379	12.6736	-0.000191508	0.00347529
12.8383	12.6732	-0.000644588	0.00419098
12.8388	12.6727	-0.000674461	0.00353601
12.8393	12.6722	-0.000662993	0.00213905
12.8397	12.6718	0.00102587	0.00275976
12.8402	12.6713	-5.73355e-05	0.00350782
12.8407	12.6708	-0.00083478	0.00420778
12.8412	12.6703	-0.000544088	0.00338762
12.8416	12.6699	-0.000520813	0.00232153
12.8421	12.6694	0.000918237	0.00262791
12.8426	12.669	-0.000115888	0.00363549
12.8431	12.6685	-0.000764688	0.00412059
12.8435	12.668	-0.000626717	0.00338499
12.844	12.6676	-0.000660389	0.00219665
12.8445	12.6671	0.000857153	0.00264348
12.8449	12.6666	-0.000176973	0.00365465
12.8454	12.6661	-0.00097309	0.00410068
12.8459	12.6657	-0.00056656	0.00329673
12.8464	12.6652	-0.000425182	0.00206496
12.8468	12.6647	0.000937178	0.00277254
12.8473	12.6642	-0.000130691	0.00365449
12.8478	12.6637	-0.000917605	0.00402127
12.8482	12.6633	-0.000442856	0.00332771
12.8487	12.6628	-0.000536954	0.00213953
12.8492	12.6624	0.000784065	0.00273764
12.8497	12.6619	1.65548e-05	0.00365433
12.8501	12.6614	-0.00100657	0.00404618
12.8506	12.661	-0.000472534	0.00323864
12.8511	12.6605	-0.000470465	0.00219058
12.8516	12.66	0.000982925	0.00281769
12.852	12.6595	4.13632e-05	0.00384083
12.8525	12.6591	-0.00108019	0.00397097
12.853	12.6586	-0.000572231	0.00325609
12.8534	12.6581	-0.000522882	0.00217378
12.8539	12.6577	0.00078913	0.00276615
12.8544	12.6572	4.82297e-05	0.00380019
12.8549	12.6567	-0.00108966	0.00404774
12.8553	12.6562	-0.000406312	0.0030836
12.8558	12.6558	-0.000393774	0.00224975
12.8563	12.6553	0.000776592	0.00280974
12.8567	12.6548	-6.45235e-06	0.00383117
12.8572	12.6543	-0.00122977	0.00398235
12.8577	12.6538	-0.000413981	0.00328272
12.8582	12.6534	-0.00033442	0.00218264
12.8586	12.6529	0.000584135	0.00290455
12.8591	12.6524	3.39617e-05	0.0038192
12.8596	12.652	-0.00124258	0.00396646
12.8601	12.6515	-0.000392776	0.00315645
12.8605	12.651	-0.000187977	0.00209905
12.861	12.6505	0.000605608	0.00281737
12.8615	12.6501	4.44308e-05	0.00405225
12.8619	12.6496	-0.00123437	0.00396882
12.8624	12.6491	-0.000305277	0.00309761
12.8629	12.6487	-0.00017337	0.00223573
12.8634	12.6482	0.00055806	0.00292307
12.8638	12.6477	0.000114986	0.00398563
12.8643	12.6472	-0.00128806	0.00382666
12.8648	12.6468	-0.000450258	0.00303721
12.8652	12.6463	-0.00023499	0.00222328
12.8657	12.6458	0.000463695	0.00291201
12.8662	12.6453	1.16858e-05	0.00408446
12.8667	12.6448	-0.00135041	0.003959
12.8671	12.6444	-0.000311145	0.003021
12.8676	12.6439	-8.41415e-05	0.00215027
12.8681	12.6434	0.000352726	0.00300403
12.8686	12.643	4.26295e-05	0.0040792
12.869	12.6425	-0.00144631	0.0038396
12.8695	12.642	-0.000433921	0.00298863
12.87	12.6416	2.29575e-05	0.00216068
12.8704	12.6411	0.00034306	0.00302164
12.8709	12.6406	0.000216485	0.00414411
12.8714	12.6401	-0.00152913	0.00383461
12.8719	12.6397	-0.000396307	0.00288898
12.8723	12.6392	7.97084e-05	0.00226736
12.8728	12.6388	0.000281172	0.00289366
12.8733	12.6383	0.000210617	0.00412666
12.8737	12.6378	-0.00150973	0.00370694
12.8742	12.6373	-0.000313214	0.00287014
12.8747	12.6369	0.000171737	0.00228604
12.8752	12.6364	0.000270168	0.00296651
12.8756	12.6359	0.000175072	0.00422335
12.8761	12.6354	-0.00145471	0.00368686
12.8766	12.635	-0.000270071	0.00283589
12.8771	12.6345	0.000200879	0.00230096
12.8775	12.634	0.000147731	0.00286531
12.878	12.6335	0.00019601	0.00417492
12.8785	12.6331	-0.00154627	0.00370694
12.8789	12.6326	-0.000276403	0.00269904
12.8794	12.6322	0.000299578	0.00232759
12.8799	12.6317	0.000107317	0.00297896
12.8804	12.6312	0.000127524	0.00430898
12.8808	12.6307	-0.00136808	0.00377077
12.8813	12.6303	-0.000269803	0.00279122
12.8818	12.6298	0.000268634	0.0022935
12.8822	12.6293	0.000143861	0.00305058
12.8827	12.6289	0.000154865	0.00420762
12.8832	12.6284	-0.00132974	0.00366662
12.8837	12.6279	-0.000375636	0.00279573
12.8841	12.6274	0.000397207	0.0023852
12.8846	12.627	0.000142131	0.0029824
12.8851	12.6265	0.000214416	0.00422662
12.8856	12.626	-0.00134408	0.00361508
12.886	12.6255	-0.000354627	0.00267118
12.8865	12.625	0.000513045	0.00229162
12.887	12.6246	3.13578e-05	0.00301976
12.8874	12.6241	0.000148997	0.0041673
12.8879	12.6236	-0.0013374	0.00366802
12.8884	12.6231	-0.000351292	0.00259817
12.8889	12.6227	0.000525315	0.0023416
12.8893	12.6222	3.21603e-05	0.00301649
12.8898	12.6217	0.000159466	0.00432422
12.8903	12.6213	-0.00128706	0.00361353
12.8907	12.6208	-0.000358764	0.00267134
12.8912	12.6203	0.000562858	0.00225286
12.8917	12.6198	-3.7931e-05	0.00312252
12.8922	12.6194	6.41028e-05	0.00425727
12.8926	12.6189	-0.00130439	0.0036867
12.8931	12.6184	-0.000474264	0.00252639
12.8936	12.618	0.000577465	0.00243002
12.8941	12.6175	3.98294e-05	0.00317948
12.8945	12.617	-0.00011562	0.00420483
12.895	12.6165	-0.00113261	0.00370088
12.8955	12.6161	-0.000409112	0.0026584
12.8959	12.6156	0.000637818	0.00248967
12.8964	12.6151	4.26295e-05	0.0031703
12.8969	12.6146	-9.26131e-05	0.00425137
12.8974	12.6142	-0.00111987	0.00357353
12.8978	12.6137	-0.00040938	0.00260177
12.8983	12.6132	0.000865089	0.00247705
12.8988	12.6128	4.64996e-05	0.00323757
