# 1304     AichiSR QXAFS
# Start     : 8.9544
# End       : 9.0544
# Dir       : Forward
# Points    : 300
# ScanTime  : 1.01549
# Date      : 13.04.23 23:28
# Ring Cur. : 1[mA]
12.7557	12.7562	0.00103254	0.00262791
12.7562	12.7557	-6.9606e-05	0.00349799
12.7566	12.7552	-0.000631247	0.00409536
12.7571	12.7548	-0.000567826	0.00350266
12.7576	12.7543	-0.000568361	0.00222172
12.7581	12.7538	0.00103841	0.00260842
12.7585	12.7534	9.15323e-06	0.00355904
12.759	12.7529	-0.000703604	0.00419827
12.7595	12.7524	-0.000681399	0.00344726
12.7599	12.752	-0.000559158	0.00215961
12.7604	12.7515	0.00101874	0.00273083
12.7609	12.751	3.49605e-05	0.00364671
12.7614	12.7506	-0.000760354	0.00415033
12.7618	12.7501	-0.000655324	0.00354347
12.7623	12.7496	-0.000589103	0.00223729
12.7628	12.7492	0.00108062	0.00271944
12.7632	12.7487	-3.32584e-05	0.00352446
12.7637	12.7482	-0.000695935	0.00407109
12.7642	12.7478	-0.000673195	0.0033182
12.7647	12.7473	-0.000634582	0.00215805
12.7651	12.7468	0.000943848	0.0027151
12.7656	12.7463	-3.83948e-05	0.00349258
12.7661	12.7459	-0.000751687	0.0041564
12.7666	12.7454	-0.00065379	0.00339605
12.767	12.7449	-0.000593901	0.00219837
12.7675	12.7444	0.000958651	0.00262963
12.768	12.744	-5.91368e-05	0.00368015
12.7684	12.7435	-0.000759356	0.00409879
12.7689	12.743	-0.00050214	0.00333672
12.7694	12.7426	-0.000649653	0.00223106
12.7699	12.7421	0.000889363	0.00280475
12.7703	12.7416	-8.00751e-05	0.00356076
12.7708	12.7412	-0.000794366	0.00409085
12.7713	12.7407	-0.000613644	0.00330666
12.7717	12.7402	-0.000515677	0.00210651
12.7722	12.7397	0.000949181	0.00255678
12.7727	12.7393	-0.000116887	0.00366335
12.7732	12.7388	-0.000893332	0.00416885
12.7736	12.7383	-0.000469466	0.00332115
12.7741	12.7379	-0.000564295	0.00218264
12.7746	12.7374	0.000907037	0.00278639
12.7751	12.7369	-0.000124823	0.00380191
12.7755	12.7364	-0.000929876	0.00403947
12.776	12.7359	-0.000420384	0.0033386
12.7765	12.7355	-0.000566096	0.0021129
12.7769	12.735	0.0010024	0.00290922
12.7774	12.7345	-6.71985e-06	0.00371988
12.7779	12.734	-0.000926808	0.00407528
12.7784	12.7335	-0.000417513	0.00329952
12.7788	12.7331	-0.000356161	0.0020589
12.7793	12.7326	0.000819075	0.00275681
12.7798	12.7321	-1.20526e-05	0.00378291
12.7802	12.7317	-0.000993029	0.0041505
12.7807	12.7312	-0.000453325	0.00335122
12.7812	12.7307	-0.000378169	0.00214543
12.7817	12.7302	0.000829277	0.00276755
12.7821	12.7298	6.92392e-05	0.0037398
12.7826	12.7293	-0.00108299	0.00402562
12.7831	12.7288	-0.000422382	0.00320455
12.7836	12.7284	-0.000372765	0.00205406
12.784	12.7279	0.000779731	0.0028499
12.7845	12.7274	4.74984e-05	0.00367285
12.785	12.727	-0.00106665	0.004013
12.7854	12.7265	-0.000390707	0.00322758
12.7859	12.726	-0.000364365	0.00205702
12.7864	12.7255	0.000894499	0.00283015
12.7869	12.7251	6.17665e-05	0.00383928
12.7873	12.7246	-0.00108352	0.00406766
12.7878	12.7241	-0.000433653	0.00315629
12.7883	12.7236	-0.000295611	0.00213626
12.7887	12.7232	0.000855351	0.00291545
12.7892	12.7227	2.75589e-05	0.00385173
12.7897	12.7223	-0.00115228	0.00400103
12.7902	12.7218	-0.000316085	0.00322446
12.7906	12.7213	-0.000177775	0.00211634
12.7911	12.7208	0.000697369	0.00292758
12.7916	12.7204	0.000106318	0.00383133
12.7921	12.7199	-0.00116128	0.00394687
12.7925	12.7194	-0.000361297	0.00309605
12.793	12.719	-0.000201513	0.00211757
12.7935	12.7185	0.000779463	0.00285629
12.7939	12.718	8.58436e-05	0.0039576
12.7944	12.7176	-0.00119856	0.00400554
12.7949	12.7171	-0.000331887	0.00324814
12.7954	12.7166	-0.00023499	0.00225442
12.7958	12.7161	0.000619145	0.00275713
12.7963	12.7157	0.000150799	0.00384846
12.7968	12.7152	-0.00130439	0.00396571
12.7972	12.7147	-0.000364097	0.00305058
12.7977	12.7142	-3.6861e-05	0.00211773
12.7982	12.7137	0.000719377	0.00284276
12.7987	12.7133	2.54901e-05	0.00398563
12.7991	12.7128	-0.00132	0.00386542
12.7996	12.7123	-0.000320883	0.00304
12.8001	12.7119	-0.000123289	0.00216133
12.8006	12.7114	0.000639816	0.00287014
12.801	12.7109	0.000138261	0.00392491
12.8015	12.7105	-0.00130673	0.00384362
12.802	12.71	-0.000366433	0.00299625
12.8024	12.7095	-0.000111019	0.00219026
12.8029	12.7091	0.000502308	0.00277394
12.8034	12.7086	5.67013e-05	0.00404725
12.8039	12.7081	-0.00125198	0.00385731
12.8043	12.7076	-0.000388905	0.00304591
12.8048	12.7072	6.81692e-06	0.00211585
12.8053	12.7067	0.000527116	0.00296028
12.8057	12.7062	0.000186272	0.00404586
12.8062	12.7057	-0.00135428	0.00380782
12.8067	12.7052	-0.000319349	0.00303345
12.8072	12.7048	5.61663e-05	0.00229957
12.8076	12.7043	0.000556526	0.0028404
12.8081	12.7038	0.000206747	0.00413412
12.8086	12.7033	-0.00148365	0.00380175
12.8091	12.7029	-0.000338825	0.00295266
12.8095	12.7024	0.000111187	0.00215354
12.81	12.7019	0.000485169	0.00280803
12.8105	12.7015	0.000137993	0.00417009
12.8109	12.701	-0.00146264	0.00373169
12.8114	12.7005	-0.000394309	0.00299797
12.8119	12.7	6.13027e-05	0.00223016
12.8124	12.6996	0.000373201	0.0028776
12.8128	12.6991	0.000268634	0.00415656
12.8133	12.6987	-0.0014141	0.00363892
12.8138	12.6982	-0.000333688	0.00291406
12.8142	12.6977	0.000199078	0.00222795
12.8147	12.6972	0.000328453	0.00290906
12.8152	12.6968	0.000349195	0.00406159
12.8157	12.6963	-0.00140923	0.00374382
12.8161	12.6958	-0.000300943	0.00287841
12.8166	12.6953	9.96479e-05	0.00216895
12.8171	12.6949	0.00027864	0.00300092
12.8176	12.6944	0.000294976	0.00409756
12.818	12.6939	-0.00150179	0.00358599
12.8185	12.6934	-0.000324486	0.00289226
12.819	12.693	0.000257898	0.00218403
12.8194	12.6925	0.000347857	0.00291964
12.8199	12.6921	0.000224885	0.00406454
12.8204	12.6916	-0.00146038	0.00371907
12.8209	12.6911	-0.000311948	0.00286284
12.8213	12.6906	0.000262767	0.00225646
12.8218	12.6902	0.000321586	0.00290767
12.8223	12.6897	0.000282706	0.00419999
12.8227	12.6892	-0.00144144	0.00368015
12.8232	12.6888	-0.000251594	0.0027319
12.8237	12.6883	0.000263034	0.00220353
12.8242	12.6878	0.000269901	0.00296323
12.8246	12.6874	0.000118054	0.0042154
12.8251	12.6869	-0.00152913	0.00368096
12.8256	12.6864	-0.000352825	0.00280942
12.8261	12.6859	0.000342792	0.00228277
12.8265	12.6854	0.000233357	0.00297134
12.827	12.685	0.000152332	0.00417664
12.8275	12.6845	-0.00135248	0.00371038
12.8279	12.684	-0.000431852	0.00276771
12.8284	12.6835	0.000372933	0.00234735
12.8289	12.6831	0.00029651	0.00294782
12.8294	12.6826	0.000337656	0.00412838
12.8298	12.6821	-0.00137115	0.00364032
12.8303	12.6817	-0.00027947	0.00284662
12.8308	12.6812	0.000318251	0.00239749
12.8312	12.6807	0.000190678	0.00293618
12.8317	12.6802	0.000194209	0.00424965
12.8322	12.6798	-0.00134787	0.00374726
12.8327	12.6793	-0.00027107	0.00273158
12.8331	12.6788	0.000453494	0.00228604
12.8336	12.6784	0.000129325	0.00308139
12.8341	12.6779	0.000253564	0.00424621
12.8346	12.6774	-0.00137341	0.00368391
12.835	12.6769	-0.000276206	0.00277098
12.8355	12.6764	0.000513776	0.00224819
12.836	12.676	0.000185809	0.00301182
12.8364	12.6755	0.000185541	0.00421868
12.8369	12.675	-0.00124104	0.00371268
12.8374	12.6745	-0.000290207	0.00264955
12.8379	12.674	0.000520714	0.00223139
12.8383	12.6736	1.96224e-05	0.00308188
12.8388	12.6731	0.000125723	0.00436331
12.8393	12.6726	-0.00119043	0.00354862
12.8397	12.6722	-0.000482735	0.00260719
12.8402	12.6717	0.000510512	0.00231857
12.8407	12.6713	6.89717e-05	0.00320283
12.8412	12.6708	0.000119587	0.00429931
12.8416	12.6703	-0.00124511	0.00353289
12.8421	12.6698	-0.000413714	0.00268691
12.8426	12.6694	0.00067743	0.00239003
12.8431	12.6689	8.2776e-05	0.00314603
12.8435	12.6685	5.97689e-05	0.00421352
12.844	12.668	-0.00125838	0.00362491
12.8445	12.6675	-0.000408845	0.00256875
12.8449	12.667	0.00059867	0.0024129
12.8454	12.6666	6.56366e-05	0.00321889
12.8459	12.6661	2.42238e-05	0.0041732
12.8464	12.6656	-0.00105365	0.00363876
12.8468	12.6651	-0.000409112	0.00257014
12.8473	12.6646	0.000594871	0.0023911
12.8478	12.6642	6.61716e-05	0.00313014
12.8482	12.6637	-8.71746e-06	0.00429636
12.8487	12.6632	-0.00126631	0.00358722
12.8492	12.6628	-0.000406045	0.00239937
12.8497	12.6623	0.000709372	0.00245026
12.8501	12.6619	7.81746e-05	0.00323462
12.8506	12.6614	-0.000110484	0.00427129
12.8511	12.6609	-0.00112114	0.00357477
12.8516	12.6604	-0.000391438	0.00243502
12.852	12.66	0.000691501	0.00236201
12.8525	12.6595	2.90927e-05	0.0031485
12.853	12.659	-0.000211251	0.00426554
12.8534	12.6586	-0.00112187	0.00361041
12.8539	12.6581	-0.000365898	0.00255146
12.8544	12.6576	0.000688969	0.00241166
12.8549	12.6571	4.41633e-05	0.0033123
12.8553	12.6567	-7.06048e-05	0.00426006
12.8558	12.6562	-0.0010117	0.00359968
12.8563	12.6557	-0.000387639	0.00241929
12.8567	12.6552	0.000829544	0.00246411
12.8572	12.6547	7.97084e-05	0.00331804
12.8577	12.6543	-0.000243194	0.00425309
12.8582	12.6538	-0.000934477	0.00351823
12.8586	12.6533	-0.00040658	0.00241027
12.8591	12.6529	0.000837213	0.00242691
12.8596	12.6524	1.65548e-05	0.00323848
12.8601	12.6519	-0.000421115	0.00421835
12.8605	12.6515	-0.000908402	0.00355437
12.861	12.651	-0.000485268	0.0024646
12.8615	12.6505	0.000818807	0.00235062
12.8619	12.65	-6.9071e-05	0.00338327
12.8624	12.6495	-0.000338022	0.00424981
12.8629	12.6491	-0.000893332	0.00346407
12.8634	12.6486	-0.000454859	0.00239142
12.8638	12.6481	0.000892965	0.00243281
12.8643	12.6477	-0.000109217	0.00326215
12.8648	12.6472	-0.000326822	0.00422335
12.8652	12.6467	-0.000935012	0.0034748
12.8657	12.6462	-0.00044159	0.00229538
12.8662	12.6458	0.000954317	0.00248902
12.8667	12.6453	-9.00093e-05	0.00326511
12.8671	12.6448	-0.000357231	0.00409117
12.8676	12.6443	-0.00077703	0.00340834
12.8681	12.6438	-0.000523881	0.00230547
12.8686	12.6434	0.000962254	0.00245338
12.869	12.6429	-5.7603e-05	0.00342096
12.8695	12.6425	-0.000458462	0.00405021
12.87	12.642	-0.00085372	0.00351233
12.8704	12.6415	-0.000596772	0.00223573
12.8709	12.6411	0.000983192	0.00257793
12.8714	12.6406	-1.51202e-05	0.00334
12.8719	12.6401	-0.000424914	0.00430259
12.8723	12.6396	-0.000878261	0.00336351
12.8728	12.6392	-0.000625379	0.00230612
12.8733	12.6387	0.000949449	0.00258309
12.8737	12.6383	-4.70627e-05	0.00336196
12.8742	12.6378	-0.000518013	0.00405209
12.8747	12.6373	-0.000785163	0.00341269
12.8752	12.6368	-0.000641984	0.00229006
12.8756	12.6364	0.000996462	0.0026248
12.8761	12.6359	-9.51996e-06	0.00343374
12.8766	12.6354	-0.000542286	0.00420311
12.8771	12.6349	-0.000801036	0.00350814
12.8775	12.6344	-0.000608775	0.00224663
12.878	12.634	0.00103001	0.0026475
12.8785	12.6335	-0.000155232	0.00338654
12.8789	12.633	-0.000565561	0.00416623
12.8794	12.6326	-0.000764225	0.00337892
12.8799	12.6321	-0.000506277	0.00225114
12.8804	12.6316	0.000979126	0.00273657
12.8808	12.6312	2.16912e-05	0.00347422
12.8813	12.6307	-0.000699002	0.00404537
12.8818	12.6302	-0.000752418	0.00350905
12.8822	12.6297	-0.000576833	0.00226999
12.8827	12.6293	0.00100467	0.00270871
12.8832	12.6288	-0.000104884	0.00346783
12.8837	12.6283	-0.000625647	0.00415951
12.8841	12.6279	-0.00076649	0.00350192
12.8846	12.6274	-0.000651454	0.002185
12.8851	12.6269	0.00108009	0.00277238
12.8856	12.6264	-1.41214e-05	0.0034966
12.886	12.626	-0.00072101	0.00416386
12.8865	12.6255	-0.000501141	0.00331944
12.887	12.625	-0.000640717	0.00207677
12.8874	12.6245	0.00106268	0.00273845
12.8879	12.624	-0.000120222	0.00351061
12.8884	12.6236	-0.000790567	0.00413412
12.8889	12.6231	-0.000581434	0.00344833
12.8893	12.6226	-0.000565828	0.00210061
12.8898	12.6222	0.000881694	0.00277254
12.8903	12.6217	-6.50045e-05	0.00359484
12.8907	12.6212	-0.000834245	0.00409879
12.8912	12.6207	-0.000611575	0.00334016
12.8917	12.6203	-0.000544088	0.00205079
12.8922	12.6198	0.000951517	0.00265234
12.8926	12.6193	-0.000178239	0.00350798
12.8931	12.6189	-0.000808437	0.00410674
12.8936	12.6184	-0.000490137	0.00338171
12.8941	12.6179	-0.000583967	0.00211945
12.8945	12.6174	0.000911638	0.00267601
12.895	12.617	-3.19921e-05	0.003664
12.8955	12.6165	-0.000869255	0.00403775
12.8959	12.616	-0.000556893	0.00316906
12.8964	12.6155	-0.000544355	0.00217051
12.8969	12.6151	0.000949449	0.0027705
12.8974	12.6146	-0.000107684	0.00361369
12.8978	12.6141	-0.000803034	0.00400742
12.8983	12.6136	-0.000494274	0.00332738
12.8988	12.6132	-0.00056763	0.0021333
