# 1304     AichiSR QXAFS
# Start     : 8.9544
# End       : 9.0544
# Dir       : Backward
# Points    : 300
# ScanTime  : 1.01549
# Date      : 13.04.23 23:49
# Ring Cur. : 1[mA]
12.7557	12.6124	0.000231823	0.00436223
12.7562	12.6128	-0.00127525	0.00367081
12.7566	12.6133	-0.000287139	0.00272535
12.7571	12.6138	0.000378337	0.00240748
12.7576	12.6142	3.59593e-05	0.00305976
12.7581	12.6147	0.000166404	0.00429308
12.7585	12.6152	-0.00125404	0.00367162
12.759	12.6157	-0.000431317	0.00272879
12.7595	12.6161	0.000483635	0.00229908
12.7599	12.6166	5.36337e-05	0.00318431
12.7604	12.6171	0.000100379	0.00423827
12.7609	12.6176	-0.00124331	0.00368359
12.7614	12.6181	-0.00027	0.00274156
12.7618	12.6185	0.000582334	0.00247845
12.7623	12.619	-3.11723e-06	0.00319397
12.7628	12.6194	9.32452e-05	0.00433512
12.7632	12.6199	-0.0012211	0.00360279
12.7637	12.6204	-0.000481201	0.00264176
12.7642	12.6209	0.000716577	0.00245821
12.7647	12.6213	3.2855e-06	0.00312531
12.7651	12.6218	-3.47922e-05	0.00433512
12.7656	12.6223	-0.00106332	0.00367269
12.7661	12.6228	-0.0004794	0.00266168
12.7666	12.6232	0.00070964	0.00241945
12.767	12.6237	0.00011372	0.00324798
12.7675	12.6242	3.21603e-05	0.00426211
12.768	12.6246	-0.00112954	0.00366367
12.7684	12.6251	-0.00034776	0.00258228
12.7689	12.6256	0.000753585	0.00242068
12.7694	12.6261	7.61942e-06	0.00323069
12.7699	12.6266	-8.24114e-05	0.00424342
12.7703	12.627	-0.00116021	0.00352822
12.7708	12.6275	-0.000386105	0.00258276
12.7713	12.628	0.000739584	0.00249246
12.7717	12.6285	9.93804e-05	0.00327617
12.7722	12.6289	-0.00018951	0.00421261
12.7727	12.6294	-0.000999967	0.00355904
12.7732	12.6299	-0.000402977	0.00256703
12.7736	12.6303	0.00075692	0.00251753
12.7741	12.6308	-5.01303e-05	0.00325748
12.7746	12.6313	-0.000198446	0.00425776
12.7751	12.6318	-0.000938276	0.00358862
12.7755	12.6322	-0.000326019	0.00262152
12.776	12.6327	0.000875291	0.00264971
12.7765	12.6332	-2.76582e-05	0.00333951
12.7769	12.6336	-0.000197911	0.00426415
12.7774	12.6341	-0.000995366	0.00362099
12.7779	12.6346	-0.000396575	0.00258555
12.7784	12.635	0.000924908	0.00258072
12.7788	12.6355	1.65548e-05	0.00339417
12.7793	12.636	-0.000206115	0.00428997
12.7798	12.6365	-0.000990497	0.00361074
12.7802	12.6369	-0.000537685	0.00238643
12.7807	12.6374	0.000926709	0.00252655
12.7812	12.6379	8.61823e-06	0.0033786
12.7817	12.6384	-0.000333421	0.00433061
12.7821	12.6388	-0.000868523	0.0035075
12.7826	12.6393	-0.000411645	0.00229474
12.7831	12.6397	0.000864822	0.00257465
12.7836	12.6402	4.59646e-05	0.00338343
12.784	12.6407	-0.000385838	0.00429169
12.7845	12.6412	-0.000921672	0.00350471
12.785	12.6416	-0.00048327	0.00235095
12.7854	12.6421	0.000888096	0.00248747
12.7859	12.6426	-7.781e-05	0.00351093
12.7864	12.643	-0.000441322	0.0042685
12.7869	12.6435	-0.000866455	0.00348479
12.7873	12.644	-0.00061491	0.00233382
12.7878	12.6444	0.00107016	0.00275804
12.7883	12.6449	1.5021e-05	0.00337597
12.7887	12.6454	-0.000556358	0.00423875
12.7892	12.6459	-0.000767292	0.00354798
12.7897	12.6463	-0.000404511	0.0022527
12.7902	12.6468	0.000964519	0.0026489
12.7906	12.6473	-7.29411e-05	0.00349708
12.7911	12.6478	-0.000505742	0.00424793
12.7916	12.6483	-0.000729946	0.00357353
12.7921	12.6487	-0.000580899	0.0023489
12.7925	12.6492	0.00105428	0.00266061
12.793	12.6497	-3.89298e-05	0.00346686
12.7935	12.6501	-0.000570965	0.00426989
12.7939	12.6506	-0.000666061	0.00345381
12.7944	12.6511	-0.000496272	0.00238971
12.7949	12.6516	0.0010026	0.00272927
12.7954	12.652	-3.40609e-05	0.00360279
12.7958	12.6525	-0.000625379	0.00412698
12.7963	12.653	-0.000713609	0.0034834
12.7968	12.6534	-0.000611843	0.00231997
12.7972	12.6539	0.00114991	0.00264176
12.7977	12.6544	-7.54737e-05	0.00350159
12.7982	12.6549	-0.000759088	0.00415968
12.7987	12.6553	-0.00056763	0.00357198
12.7991	12.6558	-0.000510611	0.0023117
12.7996	12.6563	0.00108423	0.00280459
12.8001	12.6568	7.89771e-05	0.0037085
12.8006	12.6573	-0.000768023	0.00416295
12.801	12.6577	-0.000488335	0.00343653
12.8015	12.6582	-0.000650188	0.0021383
12.802	12.6587	0.000981926	0.0027691
12.8024	12.6591	-0.000149828	0.00355608
12.8029	12.6596	-0.000831712	0.00422056
12.8034	12.6601	-0.000601641	0.00344619
12.8039	12.6605	-0.000450525	0.00212224
12.8043	12.661	0.000979857	0.00268519
12.8048	12.6615	3.18928e-05	0.00370538
12.8053	12.662	-0.000870325	0.00418738
12.8057	12.6624	-0.000565828	0.00346111
12.8062	12.6629	-0.000431121	0.00217969
12.8067	12.6633	0.000919504	0.00273329
12.8072	12.6638	-4.91315e-05	0.00364327
12.8076	12.6643	-0.000797968	0.0041033
12.8081	12.6648	-0.000464597	0.00340351
12.8086	12.6652	-0.000468467	0.00216723
12.8091	12.6657	0.000898565	0.00281892
12.8095	12.6662	-4.91315e-05	0.00382994
12.81	12.6667	-0.000933942	0.00407888
12.8105	12.6671	-0.000311948	0.00338622
12.8109	12.6676	-0.00043492	0.00219558
12.8114	12.6681	0.000796603	0.00283793
12.8119	12.6686	6.92392e-05	0.00370538
12.8124	12.669	-0.00110293	0.00405193
12.8128	12.6695	-0.000427518	0.00324036
12.8133	12.6699	-0.000448724	0.00214871
12.8138	12.6704	0.000864554	0.00289677
12.8142	12.6709	0.000131127	0.00385485
12.8147	12.6714	-0.000985824	0.00405896
12.8152	12.6718	-0.000401443	0.00323118
12.8157	12.6723	-0.000410111	0.00226344
12.8161	12.6728	0.00086409	0.00283466
12.8166	12.6732	8.81087e-05	0.00389066
12.8171	12.6737	-0.00104438	0.00414706
12.8176	12.6742	-0.000319349	0.00326838
12.818	12.6746	-0.000281806	0.00225179
12.8185	12.6751	0.000719645	0.00292152
12.819	12.6756	7.87096e-05	0.00395261
12.8194	12.6761	-0.00114288	0.00406175
12.8199	12.6766	-0.000336756	0.00324814
12.8204	12.6771	-0.000206115	0.00220911
12.8209	12.6775	0.00071911	0.00293741
12.8213	12.678	0.000115253	0.00388206
12.8218	12.6785	-0.00107965	0.00401923
12.8223	12.6789	-0.000414445	0.00324052
12.8227	12.6794	-0.000237059	0.00229989
12.8232	12.6799	0.000656224	0.00287325
12.8237	12.6803	0.000137726	0.00392491
12.8242	12.6808	-0.00114514	0.00400071
12.8246	12.6813	-0.000400712	0.00316546
12.8251	12.6818	-0.000157301	0.00217378
12.8256	12.6822	0.000618877	0.00282703
12.8261	12.6827	0.00011932	0.00387927
12.8265	12.6832	-0.00125865	0.00385952
12.827	12.6836	-0.000340091	0.00321529
12.8275	12.6841	-0.000159833	0.00229211
12.8279	12.6846	0.00064802	0.00290144
12.8284	12.6851	5.28312e-05	0.00389828
12.8289	12.6856	-0.00121516	0.00380347
12.8294	12.686	-0.00048607	0.00312343
12.8298	12.6865	-6.29357e-05	0.0022323
12.8303	12.687	0.000596138	0.00284588
12.8308	12.6875	6.07677e-05	0.00397752
12.8312	12.688	-0.00135274	0.00383633
12.8317	12.6884	-0.000298678	0.0030632
12.8322	12.6889	-3.58622e-05	0.00213126
12.8327	12.6893	0.000525315	0.00291857
12.8331	12.6898	0.000165602	0.00418893
12.8336	12.6903	-0.00136248	0.00392802
12.8341	12.6907	-0.000232725	0.00300124
12.8346	12.6912	-5.84616e-07	0.00218747
12.835	12.6917	0.000526849	0.00296946
12.8355	12.6922	0.000227489	0.00415001
12.836	12.6926	-0.00144477	0.0037879
12.8364	12.6931	-0.000165237	0.00308
12.8369	12.6935	-2.58223e-06	0.00224851
12.8374	12.694	0.000536854	0.00297478
12.8379	12.6945	0.000286772	0.00411748
12.8383	12.695	-0.00147085	0.00382618
12.8388	12.6954	-0.000244728	0.0029366
12.8393	12.6959	0.000205748	0.00226703
12.8397	12.6964	0.000406944	0.00297928
12.8402	12.6969	0.000108583	0.00414534
12.8407	12.6974	-0.00138802	0.00375864
12.8412	12.6978	-0.000324486	0.00295175
12.8416	12.6983	0.000153599	0.00223434
12.8421	12.6988	0.000450694	0.00303501
12.8426	12.6992	0.000204482	0.00430259
12.8431	12.6997	-0.00138549	0.0037675
12.8435	12.7001	-0.000220454	0.00301993
12.844	12.7006	0.000163069	0.00231702
12.8445	12.7011	0.000421284	0.00299174
12.8449	12.7016	0.000136727	0.00421696
12.8454	12.702	-0.00148058	0.00382371
12.8459	12.7025	-0.00017444	0.00297864
12.8464	12.703	0.000194744	0.00229334
12.8468	12.7034	0.000317181	0.00297569
12.8473	12.7039	0.000278105	0.00424654
12.8478	12.7044	-0.00138189	0.00381748
12.8482	12.7049	-0.00028334	0.00296511
12.8487	12.7054	0.000312116	0.00229833
12.8492	12.7058	0.000277837	0.00304
12.8497	12.7063	0.000228755	0.00418893
12.8501	12.7068	-0.00143764	0.00373185
12.8506	12.7073	-0.000201513	0.00290128
12.8511	12.7078	0.000280905	0.00226703
12.8516	12.7082	0.000349195	0.00296044
12.852	12.7087	0.000130324	0.00446107
12.8525	12.7092	-0.00123897	0.00376766
12.853	12.7096	-0.000322417	0.00284228
12.8534	12.7101	0.000448357	0.00228883
12.8539	12.7106	0.000236959	0.003158
12.8544	12.7111	0.000259164	0.00429029
12.8549	12.7115	-0.00131467	0.00368482
12.8553	12.712	-0.000274869	0.00287153
12.8558	12.7125	0.000405678	0.00231825
12.8563	12.7129	0.000222085	0.00313374
12.8567	12.7134	4.97635e-05	0.00430881
12.8572	12.7139	-0.00121903	0.00375553
12.8577	12.7143	-0.000383502	0.00275821
12.8582	12.7148	0.000456829	0.00244387
12.8586	12.7153	0.000110652	0.00315988
12.8591	12.7158	0.000101449	0.0042984
12.8596	12.7163	-0.0012221	0.00369776
12.8601	12.7167	-0.00033829	0.00273158
12.8605	12.7172	0.000522979	0.00232153
12.861	12.7177	0.000219552	0.00310958
12.8615	12.7182	0.000167403	0.00430119
12.8619	12.7186	-0.00130646	0.00377791
12.8624	12.7191	-0.000389904	0.00276927
12.8629	12.7195	0.000592803	0.00238815
12.8634	12.72	0.000170471	0.00313309
12.8638	12.7205	3.70293e-05	0.0042839
12.8643	12.721	-0.00128625	0.00361836
12.8648	12.7214	-0.000257462	0.00255925
12.8652	12.7219	0.000549321	0.00236635
12.8657	12.7224	3.59593e-05	0.0031907
12.8662	12.7228	-2.76582e-05	0.00427038
12.8667	12.7233	-0.00124971	0.00370104
12.8671	12.7237	-0.000326287	0.00263881
12.8676	12.7242	0.000649286	0.00246256
12.8681	12.7247	6.3104e-05	0.00323274
12.8686	12.7252	-3.12608e-05	0.00427161
12.869	12.7257	-0.0011096	0.0036604
12.8695	12.7261	-0.000403976	0.00263832
12.87	12.7266	0.00074572	0.00243641
12.8704	12.7271	8.2241e-05	0.00331149
12.8709	12.7276	-3.50597e-05	0.00420171
12.8714	12.728	-0.00113747	0.00367629
12.8719	12.7285	-0.000423648	0.00267258
12.8723	12.729	0.000733449	0.00252918
12.8728	12.7294	0.000140062	0.00321593
12.8733	12.7299	-0.000195378	0.00432234
12.8737	12.7304	-0.00107206	0.00378479
12.8742	12.7309	-0.000505475	0.00247861
12.8747	12.7313	0.000798868	0.00249402
12.8752	12.7318	-3.91973e-06	0.00326478
12.8756	12.7323	-0.000350293	0.00438773
12.8761	12.7327	-0.000973821	0.00361385
12.8766	12.7332	-0.000473532	0.00246739
12.8771	12.7337	0.000870493	0.00264192
12.8775	12.7342	7.0773e-05	0.00321765
12.878	12.7346	-0.000310681	0.00418893
12.8785	12.7351	-0.000852918	0.00359377
12.8789	12.7356	-0.000593437	0.00235513
12.8794	12.7361	0.000889363	0.00249525
12.8799	12.7366	-7.44749e-05	0.00338654
12.8804	12.737	-0.000276135	0.00427145
12.8808	12.7375	-0.000914538	0.00366662
12.8813	12.738	-0.0004682	0.00245402
12.8818	12.7385	0.00086302	0.00253015
12.8822	12.7389	-3.61297e-05	0.0033459
12.8827	12.7394	-0.00040271	0.00433356
12.8832	12.7399	-0.000832711	0.00344431
12.8837	12.7403	-0.000386837	0.00231981
12.8841	12.7408	0.000955851	0.00256359
12.8846	12.7413	-4.01961e-05	0.00340695
12.8851	12.7418	-0.000324486	0.00422802
12.8856	12.7422	-0.00083758	0.00368998
12.886	12.7427	-0.000558427	0.00239765
12.8865	12.7431	0.00103868	0.00267274
12.887	12.7436	5.82351e-05	0.00348307
12.8874	12.7441	-0.00041885	0.00433619
12.8879	12.7446	-0.00077316	0.00349274
12.8884	12.745	-0.000494738	0.00234177
12.8889	12.7455	0.00104635	0.00266667
12.8893	12.746	-4.9934e-05	0.00342702
12.8898	12.7465	-0.000458194	0.00431553
12.8903	12.747	-0.000752489	0.00355206
12.8907	12.7474	-0.000672392	0.00224491
12.8912	12.7479	0.00108776	0.00256096
12.8917	12.7484	-0.000115085	0.00351937
12.8922	12.7488	-0.000609042	0.00425932
12.8926	12.7493	-0.000774961	0.00349209
12.8931	12.7498	-0.000615178	0.00229506
12.8936	12.7502	0.00118492	0.0027305
12.8941	12.7507	-5.91735e-06	0.00348742
12.8945	12.7512	-0.000582433	0.00427596
12.895	12.7517	-0.000738881	0.00343481
12.8955	12.7521	-0.000539754	0.00231981
12.8959	12.7526	0.00103227	0.00265234
12.8964	12.753	-1.43889e-05	0.00356264
12.8969	12.7535	-0.000551222	0.00415452
12.8974	12.754	-0.000565561	0.00353273
12.8978	12.7544	-0.000518013	0.00220255
12.8983	12.7549	0.000997264	0.00285366
12.8988	12.7554	4.51621e-05	0.00354969
