# 1304     AichiSR QXAFS
# Start     : 8.9544
# End       : 9.0544
# Dir       : Forward
# Points    : 300
# ScanTime  : 1.01549
# Date      : 13.04.24 00:21
# Ring Cur. : 1[mA]
12.7557	12.7563	-9.05443e-05	0.00398358
12.7562	12.7558	-0.00120343	0.00391712
12.7566	12.7553	-0.000484804	0.00318168
12.7571	12.7548	-0.000287139	0.00224212
12.7576	12.7544	0.000568529	0.0028404
12.7581	12.7539	3.49605e-05	0.00394203
12.7585	12.7534	-0.00130573	0.00399808
12.759	12.753	-0.000498876	0.00315038
12.7595	12.7525	-0.000314016	0.00206013
12.7599	12.752	0.000490038	0.00284851
12.7604	12.7516	-3.20633e-05	0.00395916
12.7609	12.7511	-0.00125151	0.00395277
12.7614	12.7506	-0.000546424	0.00319865
12.7618	12.7502	-0.000236524	0.00219697
12.7623	12.7497	0.00041308	0.00290095
12.7628	12.7492	1.40222e-05	0.00402063
12.7632	12.7488	-0.00130673	0.00395014
12.7637	12.7483	-0.000432655	0.00306631
12.7642	12.7478	-0.000255732	0.00231326
12.7647	12.7474	0.000522248	0.00292291
12.7651	12.7469	7.89059e-05	0.00403668
12.7656	12.7464	-0.00132433	0.0039685
12.7661	12.7459	-0.000448991	0.00312096
12.7666	12.7455	-0.000115085	0.00221566
12.767	12.745	0.000408478	0.0029089
12.7675	12.7445	5.08335e-05	0.00407061
12.768	12.744	-0.00135581	0.00388706
12.7684	12.7436	-0.000388638	0.00296732
12.7689	12.7431	-7.08723e-05	0.00219386
12.7694	12.7426	0.00035253	0.00297585
12.7699	12.7422	7.41082e-05	0.00410314
12.7703	12.7417	-0.00148699	0.0037639
12.7708	12.7412	-0.000370232	0.00305648
12.7713	12.7407	-8.31427e-05	0.00224212
12.7717	12.7403	0.000294976	0.00291234
12.7722	12.7398	0.000209083	0.0041083
12.7727	12.7393	-0.00144324	0.0039059
12.7732	12.7389	-0.000404975	0.00301321
12.7736	12.7384	4.31645e-05	0.00215601
12.7741	12.7379	0.000271702	0.00300108
12.7746	12.7375	0.000134194	0.00408757
12.7751	12.737	-0.00146398	0.00384346
12.7755	12.7365	-0.000422649	0.00296355
12.776	12.736	7.53745e-05	0.00219837
12.7765	12.7355	0.000300113	0.00300747
12.7769	12.7351	8.91787e-05	0.00416295
12.7774	12.7346	-0.00152046	0.00376938
12.7779	12.7341	-0.000375369	0.00303861
12.7784	12.7336	5.0566e-05	0.0023176
12.7788	12.7331	0.000248427	0.00298691
12.7793	12.7327	0.000283241	0.00422179
12.7798	12.7322	-0.00130926	0.00378839
12.7802	12.7317	-0.000365363	0.00288931
12.7807	12.7313	0.00021595	0.00219107
12.7812	12.7308	0.000146393	0.00306631
12.7817	12.7303	0.00019321	0.00424965
12.7821	12.7298	-0.00143764	0.00380019
12.7826	12.7294	-0.000244193	0.00279262
12.7831	12.7289	0.00028037	0.00230236
12.7836	12.7284	0.000138992	0.00298224
12.784	12.728	0.000213685	0.0042249
12.7845	12.7275	-0.00142383	0.00379987
12.785	12.727	-0.000291741	0.0028848
12.7854	12.7266	0.000213417	0.00224384
12.7859	12.7261	0.00016767	0.002957
12.7864	12.7256	0.000121924	0.00419253
12.7869	12.7251	-0.00144197	0.00371129
12.7873	12.7246	-0.000465328	0.00283138
12.7878	12.7242	0.000294245	0.00237881
12.7883	12.7237	0.000150264	0.00298396
12.7887	12.7232	0.000192943	0.00424998
12.7892	12.7228	-0.00133994	0.00377029
12.7897	12.7223	-0.000384304	0.0028513
12.7902	12.7219	0.000425083	0.00227777
12.7906	12.7214	0.000197812	0.00329297
12.7911	12.7209	0.000183009	0.00426554
12.7916	12.7204	-0.00134274	0.0037303
12.7921	12.72	-0.000456393	0.00281302
12.7925	12.7195	0.000494371	0.00233194
12.793	12.719	8.65749e-05	0.00313621
12.7935	12.7186	0.000169668	0.00434011
12.7939	12.7181	-0.00127805	0.00370571
12.7944	12.7176	-0.000378169	0.00277286
12.7949	12.7172	0.000509442	0.00235889
12.7954	12.7167	5.67013e-05	0.00310663
12.7958	12.7162	7.76396e-05	0.0044237
12.7963	12.7157	-0.00119369	0.00360156
12.7968	12.7153	-0.000332155	0.00263521
12.7972	12.7148	0.000394406	0.00237119
12.7977	12.7143	3.5228e-05	0.00320799
12.7982	12.7138	4.38958e-05	0.00431987
12.7987	12.7133	-0.00131493	0.00353617
12.7991	12.7129	-0.000390439	0.0027428
12.7996	12.7124	0.000570063	0.00238847
12.8001	12.712	-1.59227e-05	0.00317685
12.8006	12.7115	-1.23201e-05	0.00420778
12.801	12.711	-0.00132406	0.00376127
12.8015	12.7105	-0.000396575	0.0026234
12.802	12.7101	0.000462162	0.00243953
12.8024	12.7096	-3.38473e-06	0.00321233
12.8029	12.7091	-0.000133491	0.00430382
12.8034	12.7087	-0.00119603	0.00363844
12.8039	12.7082	-0.000422917	0.00250508
12.8043	12.7077	0.000617611	0.00245977
12.8048	12.7072	-6.65383e-05	0.00328567
12.8053	12.7068	-0.00020945	0.00434618
12.8057	12.7063	-0.00116228	0.00373325
12.8062	12.7058	-0.000474067	0.00261948
12.8067	12.7053	0.000654957	0.00248296
12.8072	12.7048	-2.4323e-05	0.00338204
12.8076	12.7043	-0.000211251	0.00431086
12.8081	12.7039	-0.001128	0.00360762
12.8086	12.7034	-0.000484804	0.00257997
12.8091	12.7029	0.000636284	0.00252049
12.8095	12.7025	2.44913e-05	0.0032497
12.81	12.702	-0.000201513	0.00430463
12.8105	12.7015	-0.00106918	0.00369776
12.8109	12.7011	-0.000442589	0.00251254
12.8114	12.7006	0.000742117	0.00251114
12.8119	12.7001	-0.00014223	0.00342359
12.8124	12.6996	-0.000314016	0.00427923
12.8128	12.6992	-0.00108199	0.00352135
12.8133	12.6987	-0.000446191	0.00243019
12.8138	12.6983	0.000790396	0.0025222
12.8142	12.6978	-6.68058e-05	0.00336491
12.8147	12.6973	-0.000180843	0.00434258
12.8152	12.6968	-0.00101604	0.00366491
12.8157	12.6964	-0.000606974	0.00252687
12.8161	12.6959	0.000841815	0.00244715
12.8166	12.6954	-8.46765e-05	0.00333066
12.8171	12.6949	-0.000435187	0.00434151
12.8176	12.6945	-0.00100403	0.00366383
12.818	12.694	-0.00054102	0.00244854
12.8185	12.6935	0.000896033	0.0026402
12.819	12.693	-6.50045e-05	0.00337565
12.8194	12.6926	-0.000491938	0.00433184
12.8199	12.6921	-0.000841914	0.00354674
12.8204	12.6917	-0.000578366	0.0023729
12.8209	12.6912	0.000866088	0.00267929
12.8213	12.6907	-0.000149096	0.00346767
12.8218	12.6902	-0.000463331	0.00416993
12.8223	12.6898	-0.00101217	0.00357353
12.8227	12.6893	-0.000618513	0.00233333
12.8232	12.6888	0.000807001	0.00262308
12.8237	12.6884	-1.76528e-05	0.00343497
12.8242	12.6879	-0.000518815	0.00429947
12.8246	12.6874	-0.000919139	0.00355764
12.8251	12.687	-0.000519814	0.00235111
12.8256	12.6865	0.000861487	0.0027246
12.8261	12.686	-3.7396e-05	0.00346718
12.8265	12.6855	-0.000576833	0.00419328
12.827	12.685	-0.000855986	0.00353257
12.8275	12.6846	-0.000760354	0.00222296
12.8279	12.6841	0.000995998	0.00261374
12.8284	12.6836	-0.00011175	0.00339326
12.8289	12.6831	-0.000689799	0.00435724
12.8294	12.6827	-0.000738614	0.00359812
12.8298	12.6822	-0.00069647	0.00222296
12.8303	12.6817	0.00094178	0.0026438
12.8308	12.6813	-0.000169838	0.00361836
12.8312	12.6808	-0.00066986	0.00415968
12.8317	12.6803	-0.000727413	0.00343948
12.8322	12.6798	-0.000569698	0.00225925
12.8327	12.6794	0.00086689	0.00264332
12.8331	12.6789	-0.000122558	0.00358116
12.8336	12.6784	-0.000772429	0.00430709
12.8341	12.678	-0.000754754	0.00343448
12.8346	12.6775	-0.000674729	0.00220181
12.835	12.677	0.000921305	0.00275214
12.8355	12.6765	-0.000120489	0.00360279
12.836	12.676	-0.000765758	0.00415001
12.8364	12.6756	-0.00080537	0.00340211
12.8369	12.6751	-0.000658124	0.00217985
12.8374	12.6746	0.00100927	0.00278967
12.8379	12.6741	-0.000144763	0.00354379
12.8383	12.6736	-0.000806904	0.00404758
12.8388	12.6732	-0.000662458	0.00346718
12.8393	12.6727	-0.000653523	0.00235594
12.8397	12.6723	0.000952249	0.00269969
12.8402	12.6718	-0.000256998	0.00364188
12.8407	12.6713	-0.000860854	0.00424342
12.8412	12.6709	-0.000564295	0.00343776
12.8416	12.6704	-0.000570697	0.00216133
12.8421	12.6699	0.000909035	0.00278532
12.8426	12.6694	-0.000213516	0.00356526
12.8431	12.669	-0.000797968	0.00416934
12.8435	12.6685	-0.000662458	0.00345537
12.844	12.6681	-0.000608507	0.00218715
12.8445	12.6676	0.000913903	0.0026992
12.8449	12.6671	-4.73302e-05	0.00364778
12.8454	12.6666	-0.000967757	0.00425105
12.8459	12.6662	-0.00057603	0.00331058
12.8464	12.6657	-0.000554824	0.0021333
12.8468	12.6652	0.000898298	0.00284695
12.8473	12.6647	-0.000175171	0.00366614
12.8478	12.6642	-0.000869255	0.00406282
12.8482	12.6638	-0.000613644	0.00338466
12.8487	12.6633	-0.000621313	0.00205873
12.8492	12.6628	0.00083081	0.00287809
12.8497	12.6624	-0.000257997	0.00372144
12.8501	12.6619	-0.000910204	0.00405225
12.8506	12.6615	-0.000571429	0.00321979
12.8511	12.661	-0.000646853	0.00214715
12.8516	12.6605	0.000857688	0.00272895
12.852	12.66	-6.78047e-05	0.00371612
12.8525	12.6596	-0.00115308	0.00415812
12.853	12.6591	-0.000518013	0.00325281
12.8534	12.6586	-0.000520545	0.00225147
12.8539	12.6582	0.000793999	0.00284088
12.8544	12.6577	-2.35917e-05	0.00370678
12.8549	12.6572	-0.00113721	0.00397161
12.8553	12.6567	-0.000508542	0.00323585
12.8558	12.6563	-0.000500873	0.00218919
12.8563	12.6558	0.000631415	0.00280803
12.8567	12.6553	-4.53325e-05	0.00384067
12.8572	12.6548	-0.00118222	0.00395744
12.8577	12.6543	-0.000528482	0.00322839
12.8582	12.6539	-0.000365167	0.0020939
12.8586	12.6534	0.00064522	0.00281876
12.8591	12.6529	5.28312e-05	0.00385313
12.8596	12.6525	-0.00115201	0.00402439
12.8601	12.652	-0.000497075	0.00321438
12.8605	12.6515	-0.000376368	0.00214076
12.861	12.651	0.000607873	0.00276615
12.8615	12.6506	3.82956e-05	0.00394606
12.8619	12.6501	-0.0012221	0.00395867
12.8624	12.6496	-0.00040271	0.00310679
12.8629	12.6492	-0.00041111	0.002102
12.8634	12.6487	0.000686365	0.00287857
12.8638	12.6482	5.0031e-05	0.00389951
12.8643	12.6477	-0.00118782	0.00403496
12.8648	12.6473	-0.000319617	0.00312048
12.8652	12.6468	-0.000307346	0.00211945
12.8657	12.6463	0.000553191	0.00281721
12.8662	12.6458	-2.45905e-05	0.00390778
12.8667	12.6453	-0.00130493	0.00400103
12.8671	12.6449	-0.000457927	0.00320471
12.8676	12.6444	-0.00027947	0.00227638
12.8681	12.6439	0.000511511	0.00295545
12.8686	12.6434	-1.89903e-05	0.00396399
12.869	12.643	-0.00138955	0.00390434
12.8695	12.6425	-0.000415979	0.00324363
12.87	12.6421	-2.4323e-05	0.00220181
12.8704	12.6416	0.00045476	0.00290955
12.8709	12.6411	-1.05188e-05	0.00411281
12.8714	12.6407	-0.00140569	0.00395572
12.8719	12.6402	-0.000345959	0.00313965
12.8723	12.6397	8.88573e-06	0.00214855
12.8728	12.6392	0.00044636	0.00284367
12.8733	12.6388	9.14438e-05	0.00399727
12.8737	12.6383	-0.00141923	0.00400833
12.8742	12.6379	-0.000414249	0.00292791
12.8747	12.6374	-8.64778e-05	0.00219837
12.8752	12.6369	0.000452959	0.00283744
12.8756	12.6364	9.22463e-05	0.00412215
12.8761	12.636	-0.00144604	0.00378323
12.8766	12.6355	-0.000341357	0.00303828
12.8771	12.635	-6.80722e-05	0.002201
12.8775	12.6345	0.00032872	0.002903
12.878	12.634	1.65548e-05	0.00407093
12.8785	12.6336	-0.00150179	0.00387444
12.8789	12.6331	-0.000501141	0.00296462
12.8794	12.6326	1.52885e-05	0.00214748
12.8799	12.6322	0.00028704	0.00292963
12.8804	12.6317	9.29777e-05	0.00412124
12.8808	12.6312	-0.00150206	0.00388099
12.8813	12.6308	-0.000435455	0.00296527
12.8818	12.6303	2.28669e-06	0.00224508
12.8822	12.6298	0.000214951	0.00291529
12.8827	12.6293	0.000173806	0.00412027
12.8832	12.6289	-0.00148545	0.00379928
12.8837	12.6284	-0.000358961	0.00281704
12.8841	12.628	8.61111e-05	0.00216149
12.8846	12.6275	0.000350461	0.0029656
12.8851	12.627	0.000156399	0.0041455
12.8856	12.6265	-0.00154907	0.00369637
12.886	12.626	-0.000304546	0.00284383
12.8865	12.6256	0.000192211	0.00222591
12.887	12.6251	0.000149729	0.00289956
12.8874	12.6246	0.000159199	0.004219
12.8879	12.6241	-0.00154627	0.00381093
12.8884	12.6236	-0.000434652	0.00287948
12.8889	12.6232	9.96479e-05	0.00218452
12.8893	12.6227	0.000127988	0.0030232
12.8898	12.6222	0.00011372	0.00419565
12.8903	12.6218	-0.00151306	0.00362631
12.8907	12.6213	-0.000346761	0.00280352
12.8912	12.6208	0.000223886	0.0022468
12.8917	12.6203	1.29522e-05	0.0030101
12.8922	12.6198	0.000150531	0.00421089
12.8926	12.6194	-0.00148058	0.00366974
12.8931	12.6189	-0.000381236	0.00293709
12.8936	12.6185	0.000243826	0.00223836
12.8941	12.618	0.000122388	0.00284244
12.8945	12.6175	0.000243826	0.00424654
12.895	12.617	-0.00136321	0.00370882
12.8955	12.6166	-0.000472266	0.00278467
12.8959	12.6161	0.000386274	0.00226376
12.8964	12.6156	0.00019041	0.00302551
12.8969	12.6151	0.000182206	0.00427317
12.8974	12.6147	-0.00135481	0.00376734
12.8978	12.6142	-0.000341625	0.0027691
12.8983	12.6137	0.000414078	0.0023058
12.8988	12.6133	6.61716e-05	0.00307909
