# 1304     AichiSR QXAFS
# Start     : 8.9544
# End       : 9.0544
# Dir       : Forward
# Points    : 300
# ScanTime  : 1.01549
# Date      : 13.04.23 22:33
# Ring Cur. : 1[mA]
12.7557	12.7558	-0.000108219	0.00372063
12.7562	12.7553	-0.000837312	0.00420466
12.7566	12.7548	-0.000613644	0.00339572
12.7571	12.7544	-0.000540289	0.0022214
12.7576	12.7539	0.000991396	0.00277394
12.7581	12.7534	-1.6654e-05	0.00373497
12.7585	12.753	-0.000893332	0.00415763
12.759	12.7525	-0.000594971	0.0032606
12.7595	12.752	-0.000513679	0.00210028
12.7599	12.7516	0.000915705	0.00283498
12.7604	12.7511	-1.6654e-05	0.00376643
12.7609	12.7506	-0.0010017	0.00404758
12.7614	12.7502	-0.00059877	0.00336614
12.7618	12.7497	-0.000522882	0.00231047
12.7623	12.7492	0.000836946	0.00287014
12.7628	12.7488	-2.5393e-05	0.00383928
12.7632	12.7483	-0.00105872	0.00405348
12.7637	12.7478	-0.000395308	0.00319693
12.7642	12.7474	-0.000399178	0.00217625
12.7647	12.7469	0.000757455	0.00276943
12.7651	12.7464	7.10405e-05	0.00388706
12.7656	12.7459	-0.00109453	0.00405397
12.7661	12.7455	-0.000465596	0.0032701
12.7666	12.745	-0.000490404	0.00219263
12.767	12.7445	0.000703504	0.00283031
12.7675	12.744	-3.7396e-05	0.00374758
12.768	12.7436	-0.00126171	0.00398793
12.7684	12.7431	-0.000350828	0.00311318
12.7689	12.7426	-0.000233991	0.00207881
12.7694	12.7422	0.000583332	0.00280336
12.7699	12.7417	5.08335e-05	0.0040021
12.7703	12.7412	-0.00111194	0.00395572
12.7708	12.7407	-0.000373835	0.00313137
12.7713	12.7403	-0.000172104	0.0020335
12.7717	12.7398	0.000637016	0.00285006
12.7722	12.7393	3.39617e-05	0.00402922
12.7727	12.7389	-0.00140616	0.00386279
12.7732	12.7384	-0.000330353	0.00307737
12.7736	12.7379	-7.29411e-05	0.00219649
12.7741	12.7375	0.000622213	0.00275837
12.7746	12.737	0.00013546	0.00397752
12.7751	12.7365	-0.00134734	0.00387213
12.7755	12.736	-0.000317548	0.00314055
12.776	12.7355	8.15442e-06	0.00212396
12.7765	12.735	0.00035813	0.00300715
12.7769	12.7346	0.000115253	0.00399808
12.7774	12.7341	-0.00134354	0.00387943
12.7779	12.7336	-0.000416247	0.00296076
12.7784	12.7331	-0.000107951	0.00218779
12.7788	12.7327	0.000473166	0.00286842
12.7793	12.7322	0.000133659	0.00416697
12.7798	12.7317	-0.00149512	0.00385034
12.7802	12.7313	-0.000362099	0.00306738
12.7807	12.7308	1.73573e-05	0.00217985
12.7812	12.7303	0.000402878	0.00301461
12.7817	12.7298	0.000230289	0.00423408
12.7821	12.7294	-0.00149232	0.00389672
12.7826	12.7289	-0.000407579	0.00302583
12.7831	12.7284	0.000110117	0.00225302
12.7836	12.728	0.000271702	0.00296388
12.784	12.7275	0.000281172	0.00415828
12.7845	12.727	-0.00145957	0.00376283
12.785	12.7266	-0.000419582	0.00299936
12.7854	12.7261	0.000179673	0.00225753
12.7859	12.7256	0.000320052	0.00290112
12.7864	12.7251	0.0002643	0.00420155
12.7869	12.7246	-0.00139722	0.00386386
12.7873	12.7242	-0.000243461	0.00290767
12.7878	12.7237	0.000287307	0.00231686
12.7883	12.7232	0.00025203	0.0030677
12.7887	12.7228	0.000165602	0.00430226
12.7892	12.7223	-0.00140823	0.0038047
12.7897	12.7218	-0.000328284	0.00287669
12.7902	12.7214	0.00033432	0.0022432
12.7906	12.7209	0.000224421	0.00294815
12.7911	12.7204	0.000146197	0.00425137
12.7916	12.7199	-0.00138189	0.00381764
12.7921	12.7195	-0.000383038	0.00274108
12.7925	12.719	0.000292373	0.00232013
12.793	12.7186	0.000127256	0.00297101
12.7935	12.7181	6.74379e-05	0.00419049
12.7939	12.7176	-0.00140616	0.00371735
12.7944	12.7171	-0.000371499	0.00277533
12.7949	12.7167	0.000480567	0.00232743
12.7954	12.7162	0.000149265	0.00301772
12.7958	12.7157	0.000156934	0.00427177
12.7963	12.7152	-0.00142203	0.00365589
12.7968	12.7148	-0.000506277	0.00257777
12.7972	12.7143	0.000456294	0.00234923
12.7977	12.7138	9.40477e-05	0.00303222
12.7982	12.7133	6.87042e-05	0.00430087
12.7987	12.7129	-0.00122644	0.00365868
12.7991	12.7124	-0.000307614	0.00271617
12.7996	12.7119	0.000466299	0.00230612
12.8001	12.7115	0.000108048	0.00310958
12.8006	12.711	0.000118054	0.00430693
12.801	12.7105	-0.001308	0.00359361
12.8015	12.71	-0.000509541	0.00255269
12.802	12.7096	0.000591536	0.0024129
12.8024	12.7091	5.08335e-05	0.00319972
12.8029	12.7086	-7.49387e-05	0.00431193
12.8034	12.7082	-0.00113821	0.00373062
12.8039	12.7077	-0.000447458	0.00252081
12.8043	12.7072	0.000536052	0.00247968
12.8048	12.7067	1.90874e-05	0.00316579
12.8053	12.7063	-0.000119419	0.00423048
12.8057	12.7058	-0.00114901	0.00363237
12.8062	12.7053	-0.000493204	0.00244296
12.8067	12.7048	0.000653691	0.00244543
12.8072	12.7043	-3.17116e-07	0.00320004
12.8076	12.7039	-0.00013836	0.00426662
12.8081	12.7034	-0.00103417	0.00353413
12.8086	12.7029	-0.000466595	0.0024705
12.8091	12.7025	0.000839014	0.00239642
12.8095	12.702	4.18982e-05	0.00318587
12.81	12.7015	-0.000335222	0.00426941
12.8105	12.701	-0.000938276	0.00352527
12.8109	12.7006	-0.000538951	0.00244994
12.8114	12.7001	0.00073418	0.00242347
12.8119	12.6996	-7.11398e-05	0.00337736
12.8124	12.6992	-0.000230923	0.0042635
12.8128	12.6987	-0.000999896	0.00351732
12.8133	12.6982	-0.000452059	0.00246165
12.8138	12.6978	0.000809872	0.00257433
12.8142	12.6973	-0.000151629	0.00331541
12.8147	12.6968	-0.00046713	0.00426833
12.8152	12.6963	-0.000833513	0.00369497
12.8157	12.6959	-0.000582433	0.00232603
12.8161	12.6954	0.000826209	0.00260907
12.8166	12.6949	-0.000126624	0.00346562
12.8171	12.6944	-0.000387639	0.00421819
12.8176	12.694	-0.00091534	0.00344136
12.818	12.6935	-0.000551222	0.00245633
12.8185	12.693	0.000874024	0.00250615
12.819	12.6926	-9.02768e-05	0.00343465
12.8194	12.6921	-0.000503674	0.00424605
12.8199	12.6916	-0.000887928	0.00354207
12.8204	12.6912	-0.000554289	0.00234799
12.8209	12.6907	0.00096072	0.00267692
12.8213	12.6902	-8.00751e-05	0.00342359
12.8218	12.6898	-0.000563028	0.00413567
12.8223	12.6893	-0.00081204	0.00357444
12.8227	12.6888	-0.000514945	0.00224647
12.8232	12.6884	0.00105735	0.00260423
12.8237	12.6879	-9.62157e-05	0.0034208
12.8242	12.6874	-0.000609774	0.00417615
12.8246	12.6869	-0.000700536	0.00353584
12.8251	12.6865	-0.000661459	0.00218141
12.8256	12.686	0.000990594	0.00269953
12.8261	12.6855	-0.000102815	0.00345038
12.8265	12.685	-0.000720208	0.00410862
12.827	12.6845	-0.000804567	0.00339949
12.8275	12.6841	-0.000508542	0.0021442
12.8279	12.6836	0.000943581	0.00266356
12.8284	12.6831	-1.69215e-05	0.00345038
12.8289	12.6826	-0.000807171	0.00417755
12.8294	12.6822	-0.000657126	0.00345505
12.8298	12.6817	-0.000595238	0.00222188
12.8303	12.6812	0.0010044	0.00276583
12.8308	12.6808	-2.40555e-05	0.0035855
12.8312	12.6803	-0.000717675	0.00416902
12.8317	12.6798	-0.000596237	0.00336819
12.8322	12.6794	-0.000600838	0.00213888
12.8327	12.6789	0.0010052	0.00276427
12.8331	12.6784	-0.000178239	0.00368203
12.8336	12.678	-0.000819709	0.00410502
12.8341	12.6775	-0.000560959	0.00324954
12.8346	12.677	-0.000646318	0.00206947
12.835	12.6765	0.000907037	0.00276771
12.8355	12.676	-0.000192311	0.00364843
12.836	12.6756	-0.000810239	0.00403029
12.8364	12.6751	-0.000471464	0.00335401
12.8369	12.6746	-0.000624381	0.00219509
12.8374	12.6741	0.000850215	0.00266962
12.8379	12.6736	-0.000190777	0.0036831
12.8383	12.6732	-0.000927343	0.00403201
12.8388	12.6727	-0.000481201	0.00323708
12.8393	12.6722	-0.000485072	0.00227326
12.8397	12.6718	0.000830079	0.00284867
12.8402	12.6713	9.42073e-06	0.00377405
12.8407	12.6708	-0.00109966	0.00394654
12.8412	12.6704	-0.000440252	0.00326108
12.8416	12.6699	-0.000511343	0.00213266
12.8421	12.6694	0.000728848	0.0027224
12.8426	12.669	-9.84808e-05	0.00379413
12.8431	12.6685	-0.00108839	0.00393876
12.8435	12.668	-0.000459193	0.00323069
12.844	12.6676	-0.000397573	0.00219853
12.8445	12.6671	0.000729312	0.0027895
12.8449	12.6666	-0.000110751	0.00374742
12.8454	12.6661	-0.00111573	0.00394982
12.8459	12.6657	-0.00043492	0.00306164
12.8464	12.6652	-0.000301478	0.00217781
12.8468	12.6647	0.000599205	0.00276304
12.8473	12.6642	1.52885e-05	0.00387476
12.8478	12.6638	-0.00123157	0.00390295
12.8482	12.6633	-0.000441055	0.00311785
12.8487	12.6628	-0.000173637	0.00206931
12.8492	12.6624	0.000601274	0.0028703
12.8497	12.6619	1.21669e-06	0.00387804
12.8501	12.6614	-0.00124818	0.00396146
12.8506	12.661	-0.000399375	0.00315988
12.8511	12.6605	-5.09328e-05	0.00214109
12.8516	12.66	0.000542187	0.0028608
12.852	12.6595	7.30382e-05	0.00396957
12.8525	12.6591	-0.00131873	0.00388443
12.853	12.6586	-0.000358497	0.00305836
12.8534	12.6581	-0.000184374	0.0021056
12.8539	12.6577	0.000510976	0.00288915
12.8544	12.6572	-7.18366e-06	0.00409584
12.8549	12.6567	-0.00135428	0.00386837
12.8553	12.6562	-0.000449723	0.00315038
12.8558	12.6558	-7.674e-05	0.00220057
12.8563	12.6553	0.000542455	0.00285957
12.8567	12.6548	7.66408e-05	0.00400415
12.8572	12.6543	-0.00150252	0.00385828
12.8577	12.6538	-0.000411181	0.00299936
12.8582	12.6534	2.52226e-05	0.00220787
12.8586	12.6529	0.000491304	0.00282564
12.8591	12.6524	0.00011372	0.00401037
12.8596	12.652	-0.00135121	0.00378586
12.8601	12.6515	-0.000318618	0.0030727
12.8605	12.651	2.57576e-05	0.00216133
12.861	12.6505	0.000382671	0.00293897
12.8615	12.6501	0.000153064	0.00410551
12.8619	12.6496	-0.00150739	0.00384658
12.8624	12.6491	-0.000401176	0.00297027
12.8629	12.6487	0.000115253	0.00218779
12.8634	12.6482	0.000337923	0.0028907
12.8638	12.6477	6.28365e-05	0.0041514
12.8643	12.6472	-0.00143123	0.00378634
12.8648	12.6468	-0.000348491	0.00296495
12.8652	12.6463	0.000228488	0.00208193
12.8657	12.6458	0.000318447	0.00304419
12.8662	12.6453	0.000192479	0.0042358
12.8667	12.6448	-0.00147491	0.00364655
12.8671	12.6444	-0.000322952	0.00299502
12.8676	12.6439	0.00035533	0.00226408
12.8681	12.6434	0.000216752	0.00297945
12.8686	12.643	0.000150264	0.00425169
12.869	12.6425	-0.00147698	0.00375709
12.8695	12.642	-0.000281271	0.0027895
12.87	12.6416	0.000261233	0.00222623
12.8704	12.6411	0.000162267	0.00293569
12.8709	12.6406	9.45115e-05	0.00417557
12.8714	12.6401	-0.0014335	0.00361573
12.8719	12.6397	-0.00033549	0.00280352
12.8723	12.6392	0.000366334	0.00220288
12.8728	12.6388	0.000209083	0.00303812
12.8733	12.6383	0.0001582	0.00424842
12.8737	12.6378	-0.00150386	0.00364171
12.8742	12.6374	-0.000387907	0.00259087
12.8747	12.6369	0.000490038	0.00233505
12.8752	12.6364	8.02434e-05	0.00310179
12.8756	12.6359	0.000163533	0.00414239
12.8761	12.6354	-0.0012231	0.00375644
12.8766	12.635	-0.000350293	0.00267569
12.8771	12.6345	0.000462429	0.0022082
12.8775	12.634	-5.83343e-05	0.00302615
12.878	12.6335	0.000113185	0.00422474
12.8785	12.6331	-0.00137621	0.0035374
12.8789	12.6326	-0.000407579	0.00269142
12.8794	12.6322	0.000414078	0.00244371
12.8799	12.6317	-1.20526e-05	0.00320144
12.8804	12.6312	-0.000137825	0.00426039
12.8808	12.6307	-0.00129139	0.00361181
12.8813	12.6303	-0.000455662	0.00272149
12.8818	12.6298	0.000582869	0.0024006
12.8822	12.6293	4.90322e-05	0.00321889
12.8827	12.6289	-3.63972e-05	0.00425481
12.8832	12.6284	-0.00127398	0.00359812
12.8837	12.6279	-0.000402977	0.00261218
12.8841	12.6274	0.00064522	0.00232104
12.8846	12.627	-6.11344e-05	0.00326543
12.8851	12.6265	-4.55289e-05	0.00426104
12.8856	12.626	-0.00115055	0.00365352
12.886	12.6255	-0.000462796	0.00254384
12.8865	12.625	0.000728777	0.00252172
12.887	12.6246	7.43045e-05	0.00328444
12.8874	12.6241	-0.000187977	0.00421073
12.8879	12.6236	-0.00101937	0.00366834
12.8884	12.6231	-0.000388905	0.00243953
12.8889	12.6227	0.000797334	0.00245042
12.8893	12.6222	-1.84553e-05	0.00319397
12.8898	12.6217	-0.000199445	0.00441313
12.8903	12.6213	-0.00105131	0.0036881
12.8907	12.6208	-0.000408577	0.0025331
12.8912	12.6203	0.000797067	0.00256703
12.8917	12.6198	-1.84553e-05	0.00334279
12.8922	12.6194	-0.000331156	0.00431177
12.8926	12.6189	-0.000986627	0.00353633
12.8931	12.6184	-0.000576565	0.00243518
12.8936	12.618	0.000837213	0.00255817
12.8941	12.6175	2.96277e-05	0.00328551
12.8945	12.617	-0.000287674	0.00429185
12.895	12.6165	-0.000946748	0.0036313
12.8955	12.6161	-0.000523346	0.00238176
12.8959	12.6156	0.000891966	0.00262029
12.8964	12.6151	2.75589e-05	0.00345693
12.8969	12.6146	-0.000287407	0.00429684
12.8974	12.6142	-0.000880794	0.00351249
12.8978	12.6137	-0.000501676	0.00232496
12.8983	12.6132	0.000978858	0.0025404
12.8988	12.6128	-6.44695e-05	0.00338843
