# 1304     AichiSR QXAFS
# Start     : 8.9544
# End       : 9.0544
# Dir       : Backward
# Points    : 300
# ScanTime  : 1.01549
# Date      : 13.04.24 00:33
# Ring Cur. : 1[mA]
12.7557	12.6124	-0.000180308	0.00217566
12.7562	12.6128	0.000519447	0.00278795
12.7566	12.6133	1.80886e-05	0.00387804
12.7571	12.6138	-0.00130213	0.00383289
12.7576	12.6142	-0.000350293	0.00308155
12.7581	12.6147	-0.000142694	0.00212117
12.7585	12.6152	0.000759524	0.00291218
12.759	12.6157	0.000148462	0.00394203
12.7595	12.6161	-0.00134581	0.00387165
12.7599	12.6166	-0.0003705	0.00307753
12.7604	12.6171	-7.47424e-05	0.00210684
12.7609	12.6176	0.000476768	0.00284867
12.7614	12.618	8.04397e-05	0.00405504
12.7618	12.6185	-0.00141149	0.00383182
12.7623	12.619	-0.000250863	0.00304124
12.7628	12.6194	-3.27946e-05	0.00211167
12.7632	12.6199	0.000412545	0.00292136
12.7637	12.6204	6.43703e-05	0.00405552
12.7642	12.6209	-0.00138902	0.00380347
12.7647	12.6213	-0.000375369	0.00295716
12.7651	12.6218	4.72309e-05	0.00203087
12.7656	12.6223	0.00039314	0.00277098
12.7661	12.6228	0.00014873	0.00400866
12.7666	12.6232	-0.00157334	0.0036481
12.767	12.6237	-0.000368235	0.00290112
12.7675	12.6242	0.000137993	0.00218141
12.768	12.6246	0.000371667	0.00285301
12.7684	12.6251	0.00023209	0.00400447
12.7689	12.6256	-0.00142537	0.00368531
12.7694	12.6261	-0.000323683	0.00281221
12.7699	12.6266	0.000145198	0.00217083
12.7703	12.627	0.00028984	0.002898
12.7708	12.6275	0.000109582	0.00423392
12.7713	12.628	-0.00139362	0.00372809
12.7717	12.6285	-0.000378169	0.00278467
12.7722	12.6289	0.000218554	0.00227326
12.7727	12.6294	0.000296778	0.00295561
12.7732	12.6298	0.000181207	0.00416295
12.7736	12.6303	-0.00146111	0.00386403
12.7741	12.6308	-0.000278204	0.00282703
12.7746	12.6313	0.000272237	0.00229973
12.7751	12.6318	0.000235889	0.00293709
12.7755	12.6322	0.000319981	0.00415624
12.776	12.6327	-0.00131666	0.00383509
12.7765	12.6331	-0.000334687	0.00281318
12.7769	12.6336	0.000368332	0.00218403
12.7774	12.6341	0.000200612	0.00292463
12.7779	12.6345	0.000237423	0.00417787
12.7784	12.635	-0.00139515	0.00374791
12.7788	12.6355	-0.000392241	0.00290455
12.7793	12.636	0.000302378	0.0021551
12.7798	12.6365	0.000107852	0.00312268
12.7802	12.6369	0.00024256	0.00420246
12.7807	12.6374	-0.00135041	0.00365868
12.7812	12.6379	-0.000234455	0.00269158
12.7817	12.6384	0.000395209	0.00234923
12.7821	12.6388	0.000130324	0.00300666
12.7826	12.6393	0.000156934	0.00429448
12.7831	12.6397	-0.00133127	0.00356403
12.7836	12.6402	-0.000356428	0.00271649
12.784	12.6407	0.000487237	0.00235127
12.7845	12.6412	6.18377e-05	0.00301976
12.785	12.6416	6.08561e-06	0.00427768
12.7854	12.6421	-0.00119836	0.00370989
12.7859	12.6426	-0.000275939	0.00277082
12.7864	12.643	0.000513045	0.00229087
12.7869	12.6435	8.35073e-05	0.00325855
12.7873	12.6439	0.00011372	0.00413788
12.7878	12.6444	-0.00116742	0.00354052
12.7883	12.6449	-0.000304011	0.00258883
12.7887	12.6454	0.000609675	0.00232587
12.7892	12.6459	5.20998e-05	0.00325732
12.7897	12.6463	-6.91616e-06	0.00425883
12.7902	12.6468	-0.00115948	0.00358378
12.7906	12.6473	-0.000385303	0.00265921
12.7911	12.6478	0.000589735	0.00222795
12.7916	12.6483	-8.18764e-05	0.0031848
12.7921	12.6487	1.40222e-05	0.00424842
12.7925	12.6492	-0.00109093	0.00356043
12.793	12.6497	-0.000363098	0.0025622
12.7935	12.6501	0.000711173	0.0024283
12.7939	12.6506	6.81692e-06	0.00315908
12.7944	12.6511	-7.42074e-05	0.00421835
12.7949	12.6516	-0.00113207	0.00350315
12.7954	12.652	-0.000540752	0.00249729
12.7958	12.6525	0.000672026	0.00238675
12.7963	12.653	-6.4737e-05	0.00315817
12.7968	12.6534	-9.28806e-05	0.0042685
12.7972	12.6539	-0.00105538	0.00354486
12.7977	12.6544	-0.000485535	0.00250336
12.7982	12.6549	0.000724246	0.00240716
12.7987	12.6553	9.83816e-05	0.00322667
12.7991	12.6558	-0.000266736	0.00432094
12.7996	12.6563	-0.00108886	0.00356993
12.8001	12.6568	-0.00050321	0.00243953
12.8006	12.6572	0.000711173	0.00245182
12.801	12.6577	-3.63972e-05	0.00327477
12.8015	12.6582	-0.000214586	0.00413772
12.802	12.6587	-0.000906869	0.0035061
12.8024	12.6591	-0.000447725	0.00245977
12.8029	12.6596	0.000841547	0.00240404
12.8034	12.6601	-0.000147563	0.00326044
12.8039	12.6605	-0.000403245	0.00414287
12.8043	12.661	-0.000991496	0.00350782
12.8048	12.6615	-0.000575031	0.00221909
12.8053	12.662	0.00086302	0.0025608
12.8057	12.6624	-0.000110751	0.00324503
12.8062	12.6629	-0.000356696	0.00413944
12.8067	12.6633	-0.000762691	0.00356076
12.8072	12.6638	-0.000419582	0.00249058
12.8076	12.6643	0.00093411	0.00249697
12.8081	12.6647	3.21603e-05	0.0033182
12.8086	12.6652	-0.000503477	0.00429464
12.8091	12.6657	-0.000915804	0.00349397
12.8095	12.6662	-0.000528749	0.00242289
12.81	12.6667	0.000919504	0.00261325
12.8105	12.6671	-5.55342e-05	0.00336819
12.8109	12.6676	-0.000517478	0.00418442
12.8114	12.6681	-0.000771091	0.0036109
12.8119	12.6685	-0.00054102	0.00221812
12.8124	12.669	0.0011039	0.00266807
12.8128	12.6695	-0.000134026	0.0034879
12.8133	12.6699	-0.000516479	0.00417197
12.8138	12.6704	-0.000807706	0.00347947
12.8142	12.6709	-0.000571964	0.00227015
12.8147	12.6714	0.000954317	0.00255646
12.8152	12.6718	-0.000119687	0.00341473
12.8157	12.6723	-0.000556091	0.00419098
12.8161	12.6727	-0.000784699	0.00336212
12.8166	12.6732	-0.000635849	0.00220911
12.8171	12.6737	0.000980125	0.00264455
12.8176	12.6742	2.7505e-06	0.0034879
12.818	12.6746	-0.000668861	0.00413337
12.8185	12.6751	-0.000726147	0.00335557
12.819	12.6756	-0.000561227	0.00210823
12.8194	12.6761	0.000973989	0.00261513
12.8199	12.6766	-9.23456e-05	0.00351077
12.8204	12.677	-0.000683932	0.00420418
12.8209	12.6775	-0.000646389	0.00327724
12.8213	12.678	-0.000546353	0.00235218
12.8218	12.6785	0.00103768	0.0026679
12.8223	12.6789	-2.4858e-05	0.00362303
12.8227	12.6794	-0.000749618	0.00414411
12.8232	12.6799	-0.000453058	0.00343341
12.8237	12.6803	-0.000626449	0.00221877
12.8242	12.6808	0.0010957	0.0026992
12.8246	12.6813	-2.79257e-05	0.00350643
12.8251	12.6818	-0.000809704	0.00414099
12.8256	12.6822	-0.000571232	0.00338762
12.8261	12.6827	-0.000616444	0.00216272
12.8265	12.6832	0.00101107	0.0026452
12.827	12.6836	-3.0262e-05	0.00367408
12.8275	12.6841	-0.000876995	0.0041178
12.8279	12.6846	-0.000543356	0.00326387
12.8284	12.6851	-0.000564027	0.00211913
12.8289	12.6855	0.000962985	0.00275837
12.8294	12.686	-0.000112553	0.0036663
12.8298	12.6865	-0.000932676	0.00411436
12.8303	12.687	-0.000430853	0.00329453
12.8308	12.6875	-0.000411378	0.00216149
12.8312	12.6879	0.000970191	0.00269314
12.8317	12.6884	-9.30769e-05	0.00367285
12.8322	12.6889	-0.000881329	0.00413117
12.8327	12.6893	-0.000345424	0.00329329
12.8331	12.6898	-0.000490672	0.00220508
12.8336	12.6903	0.000830543	0.0026824
12.8341	12.6907	-4.91854e-06	0.0036481
12.8346	12.6912	-0.00095035	0.00400431
12.835	12.6917	-0.000544088	0.00319988
12.8355	12.6921	-0.000462796	0.00213781
12.836	12.6926	0.00085182	0.00271633
12.8364	12.6931	-1.28551e-05	0.00363393
12.8369	12.6935	-0.001104	0.00398186
12.8374	12.694	-0.000349026	0.00325142
12.8379	12.6945	-0.000383305	0.00211323
12.8383	12.695	0.00083361	0.00275337
12.8388	12.6954	-1.6654e-05	0.00369964
12.8393	12.6959	-0.000980759	0.00383568
12.8397	12.6964	-0.0003761	0.00311597
12.8402	12.6969	-0.000400177	0.00209127
12.8407	12.6973	0.000709907	0.00279294
12.8412	12.6978	-4.9399e-05	0.00380675
12.8416	12.6983	-0.00117735	0.00394015
12.8421	12.6987	-0.00034389	0.00309106
12.8426	12.6992	-0.000365631	0.00217035
12.8431	12.6997	0.000571062	0.0027115
12.8435	12.7001	4.52333e-05	0.00393269
12.844	12.7006	-0.00121597	0.00389082
12.8445	12.7011	-0.000325021	0.0030319
12.8449	12.7016	-0.000214515	0.0022082
12.8454	12.702	0.000637551	0.00278279
12.8459	12.7025	7.28418e-05	0.00394499
12.8464	12.703	-0.00116382	0.00382666
12.8468	12.7034	-0.000453325	0.00307828
12.8473	12.7039	-0.000191044	0.00220164
12.8478	12.7044	0.000662627	0.0028222
12.8482	12.7049	0.000115253	0.00384706
12.8487	12.7053	-0.00128039	0.00401161
12.8492	12.7058	-0.000402442	0.00300231
12.8497	12.7063	-0.000107416	0.00216707
12.8501	12.7068	0.00046316	0.00289537
12.8506	12.7073	0.000110117	0.003895
12.8511	12.7077	-0.001321	0.00385469
12.8516	12.7082	-0.000337024	0.00295389
12.852	12.7087	-0.000124288	0.00217051
12.8525	12.7092	0.000529917	0.00297322
12.853	12.7096	4.72309e-05	0.00394327
12.8534	12.7101	-0.00125404	0.00383412
12.8539	12.7106	-0.000477064	0.00302443
12.8544	12.711	-6.78047e-05	0.00209266
12.8549	12.7115	0.000363998	0.00297118
12.8553	12.712	0.000183009	0.00412027
12.8558	12.7125	-0.00140263	0.00379085
12.8563	12.7129	-0.000315015	0.00297241
12.8567	12.7134	9.81141e-05	0.00224196
12.8572	12.7139	0.000437353	0.00285957
12.8577	12.7143	0.000137262	0.00397956
12.8582	12.7148	-0.00137015	0.0037988
12.8586	12.7153	-0.000390707	0.00290407
12.8591	12.7158	9.32452e-05	0.00226441
12.8596	12.7162	0.000444023	0.00284679
12.8601	12.7167	0.000238226	0.00413009
12.8605	12.7172	-0.00143123	0.00378012
12.861	12.7177	-0.000265398	0.00291545
12.8615	12.7181	9.78466e-05	0.00227031
12.8619	12.7186	0.000349391	0.00286203
12.8624	12.7191	0.000230557	0.00412993
12.8629	12.7195	-0.00145018	0.00372202
12.8634	12.72	-0.000308345	0.00281007
12.8638	12.7205	0.000248962	0.00218173
12.8643	12.7209	0.000331788	0.00291497
12.8648	12.7214	0.000223423	0.0040588
12.8652	12.7219	-0.00151839	0.00373652
12.8657	12.7223	-0.000320419	0.00285489
12.8662	12.7228	0.00012879	0.0021959
12.8667	12.7233	0.000336924	0.0029416
12.8671	12.7237	0.000214951	0.00418582
12.8676	12.7242	-0.0014103	0.00367892
12.8681	12.7247	-0.000442589	0.002844
12.8686	12.7252	0.000357131	0.00225458
12.869	12.7256	0.000176873	0.00302255
12.8695	12.7261	0.000229023	0.00415935
12.87	12.7266	-0.00140156	0.00355346
12.8704	12.7271	-0.000383573	0.00279868
12.8709	12.7275	0.000294976	0.00228244
12.8714	12.728	9.88454e-05	0.00303485
12.8719	12.7285	0.00015153	0.00429947
12.8723	12.729	-0.00140823	0.00365089
12.8728	12.7294	-0.000386837	0.00272223
12.8733	12.7299	0.000433019	0.00236684
12.8737	12.7304	0.000116252	0.00303796
12.8742	12.7308	0.000149265	0.00418909
12.8747	12.7313	-0.00127472	0.00365229
12.8752	12.7318	-0.000357694	0.00273608
12.8756	12.7323	0.000540653	0.00227433
12.8761	12.7327	0.000125188	0.00309261
12.8766	12.7332	0.00019601	0.00427145
12.8771	12.7337	-0.0012009	0.00360419
12.8775	12.7341	-0.000525949	0.00267397
12.878	12.7346	0.000527384	0.00225195
12.8785	12.7351	0.000180208	0.00305557
12.8789	12.7356	0.000162534	0.00420294
12.8794	12.7361	-0.00119703	0.00363565
12.8799	12.7365	-0.000284874	0.00266683
12.8804	12.737	0.000558328	0.0023539
12.8808	12.7375	8.30435e-05	0.00318603
12.8813	12.738	1.42897e-05	0.00421884
12.8818	12.7384	-0.00115028	0.0035905
12.8822	12.7389	-0.000456393	0.00267086
12.8827	12.7394	0.000624549	0.00234783
12.8832	12.7398	-6.14019e-05	0.00317218
12.8837	12.7403	-4.47975e-05	0.00428267
12.8841	12.7408	-0.00126758	0.00368359
12.8846	12.7413	-0.000395308	0.00249762
12.8851	12.7417	0.000646486	0.0024056
12.8856	12.7422	3.85631e-05	0.00327461
12.886	12.7427	-7.674e-05	0.00425915
12.8865	12.7431	-0.00112827	0.00355748
12.887	12.7436	-0.000358764	0.00255646
12.8874	12.7441	0.000730845	0.00257653
12.8879	12.7445	-3.50597e-05	0.00321078
12.8884	12.745	-6.24007e-05	0.00432283
12.8889	12.7455	-0.000966955	0.00367146
12.8893	12.746	-0.000364097	0.00242535
12.8898	12.7465	0.000752586	0.00255286
12.8903	12.7469	-3.30621e-05	0.00329657
12.8907	12.7474	-0.000175439	0.00418861
12.8912	12.7479	-0.00106025	0.00348479
12.8917	12.7484	-0.000401176	0.00255179
12.8922	12.7488	0.000692768	0.00241634
12.8926	12.7493	-0.000107416	0.00317857
12.8931	12.7497	-0.000208915	0.00425792
12.8936	12.7502	-0.000965956	0.00366786
12.8941	12.7507	-0.000407846	0.00247582
12.8945	12.7512	0.000709372	0.00239626
12.895	12.7516	0.000110117	0.00329796
12.8955	12.7521	-0.000346761	0.00426833
12.8959	12.7526	-0.000922474	0.00343513
12.8964	12.753	-0.000492937	0.00232088
12.8969	12.7535	0.000815008	0.00248435
12.8974	12.754	-0.000106417	0.00334483
12.8978	12.7544	-0.000362296	0.00425588
12.8983	12.7549	-0.000825577	0.00343916
12.8988	12.7554	-0.000478669	0.00241977
