# 1304     AichiSR QXAFS
# Start     : 8.9544
# End       : 9.0544
# Dir       : Forward
# Points    : 300
# ScanTime  : 1.01549
# Date      : 13.04.23 23:47
# Ring Cur. : 1[mA]
12.7557	12.7563	0.000193745	0.00301976
12.7562	12.7558	4.64996e-05	0.00424482
12.7566	12.7553	-0.00137268	0.00362786
12.7571	12.7548	-0.000306615	0.00254867
12.7576	12.7544	0.000524316	0.00233382
12.7581	12.7539	0.000134658	0.00309154
12.7585	12.7534	0.00012319	0.00408527
12.759	12.753	-0.00145117	0.0036182
12.7595	12.7525	-0.000344425	0.00253155
12.7599	12.752	0.000572132	0.00226344
12.7604	12.7516	7.15043e-05	0.00309917
12.7609	12.7511	7.30382e-05	0.00428981
12.7614	12.7506	-0.00129239	0.00360123
12.7618	12.7501	-0.000440056	0.00263537
12.7623	12.7497	0.000606607	0.00227122
12.7628	12.7492	3.29628e-05	0.00313154
12.7632	12.7488	2.54901e-05	0.00418475
12.7637	12.7483	-0.0014131	0.00353928
12.7642	12.7478	-0.000382503	0.00264283
12.7647	12.7474	0.000581799	0.00229645
12.7651	12.7469	5.90376e-05	0.00313121
12.7656	12.7464	3.34267e-05	0.00418942
12.7661	12.7459	-0.00129726	0.00353396
12.7666	12.7454	-0.000384839	0.00268814
12.767	12.745	0.000689968	0.00237881
12.7675	12.7445	0.000112186	0.00314415
12.768	12.744	-9.51996e-06	0.00424015
12.7684	12.7435	-0.00123997	0.00367892
12.7689	12.7431	-0.000498341	0.00259038
12.7694	12.7426	0.000596869	0.00237365
12.7699	12.7422	1.68223e-05	0.00307721
12.7703	12.7417	-0.000126089	0.00419205
12.7708	12.7412	-0.00116075	0.00355297
12.7713	12.7407	-0.000417049	0.00247673
12.7717	12.7403	0.000669493	0.00245493
12.7722	12.7398	-5.63367e-05	0.00316923
12.7727	12.7393	-0.000204849	0.0042372
12.7732	12.7389	-0.00104445	0.00353289
12.7736	12.7384	-0.000419849	0.00246771
12.7741	12.7379	0.000709907	0.00238348
12.7746	12.7374	2.44913e-05	0.00330935
12.7751	12.737	-0.000223789	0.00427923
12.7755	12.7365	-0.000984362	0.00350675
12.776	12.736	-0.000442589	0.0024056
12.7765	12.7355	0.000777127	0.00248935
12.7769	12.735	1.16858e-05	0.00324659
12.7774	12.7346	-0.000185373	0.00419548
12.7779	12.7341	-0.0010063	0.00355002
12.7784	12.7336	-0.000395041	0.00243657
12.7788	12.7331	0.000855084	0.00256129
12.7793	12.7327	1.48419e-06	0.0032919
12.7798	12.7322	-0.000284607	0.00428718
12.7802	12.7317	-0.000958287	0.00351544
12.7807	12.7313	-0.000596237	0.00240667
12.7812	12.7308	0.000947647	0.00259956
12.7817	12.7303	-6.9071e-05	0.0033364
12.7821	12.7298	-0.000276135	0.00424235
12.7826	12.7294	-0.00102984	0.00348914
12.7831	12.7289	-0.000541822	0.00240544
12.7836	12.7284	0.00088683	0.00261996
12.784	12.728	-1.81878e-05	0.00338171
12.7845	12.7275	-0.00054662	0.00430988
12.785	12.727	-0.000939079	0.00350487
12.7854	12.7265	-0.000560692	0.00227654
12.7859	12.7261	0.00095405	0.00262571
12.7864	12.7256	-0.000163971	0.00336754
12.7869	12.7251	-0.000480399	0.00419795
12.7873	12.7246	-0.000819977	0.00343309
12.7878	12.7242	-0.000545889	0.00226703
12.7883	12.7237	0.000939176	0.00260423
12.7887	12.7232	-8.98496e-06	0.0033822
12.7892	12.7228	-0.000425449	0.00428546
12.7897	12.7223	-0.000722544	0.00346455
12.7902	12.7218	-0.000584769	0.00232603
12.7906	12.7214	0.00100854	0.00275665
12.7911	12.7209	-8.8743e-05	0.00345333
12.7916	12.7204	-0.000513411	0.00427489
12.7921	12.7199	-0.00072101	0.00362196
12.7925	12.7195	-0.000593169	0.00219247
12.793	12.719	0.00102434	0.00263956
12.7935	12.7186	-6.55395e-05	0.00358116
12.7939	12.7181	-0.000646389	0.00429636
12.7944	12.7176	-0.000683397	0.0035229
12.7949	12.7171	-0.000571964	0.00228056
12.7954	12.7167	0.00106475	0.0026125
12.7958	12.7162	-8.98496e-06	0.00353101
12.7963	12.7157	-0.000708472	0.00415452
12.7968	12.7152	-0.000646121	0.0033976
12.7972	12.7148	-0.000593901	0.00222328
12.7977	12.7143	0.00102027	0.00274731
12.7982	12.7138	4.38958e-05	0.0036204
12.7987	12.7133	-0.000715678	0.00410019
12.7991	12.7129	-0.000623846	0.0033822
12.7996	12.7124	-0.000540021	0.00223762
12.8001	12.7119	0.000974257	0.00271354
12.8006	12.7115	-9.41469e-05	0.00363688
12.801	12.711	-0.000766757	0.00413305
12.8015	12.7105	-0.000482271	0.00336523
12.802	12.71	-0.000457659	0.0022826
12.8024	12.7096	0.00106962	0.00277361
12.8029	12.7091	1.62873e-05	0.00376192
12.8034	12.7086	-0.000807439	0.00422753
12.8039	12.7082	-0.000476868	0.00336335
12.8043	12.7077	-0.000517014	0.00213486
12.8048	12.7072	0.000975256	0.00268986
12.8053	12.7067	-2.76582e-05	0.00372841
12.8057	12.7063	-0.000722009	0.00404323
12.8062	12.7058	-0.000496005	0.00335557
12.8067	12.7053	-0.000565561	0.00213266
12.8072	12.7048	0.00104428	0.00272551
12.8076	12.7043	2.47588e-05	0.00368515
12.8081	12.7039	-0.000993297	0.00408151
12.8086	12.7034	-0.000542554	0.00316112
12.8091	12.7029	-0.000460994	0.00212052
12.8095	12.7025	0.000928974	0.00280803
12.81	12.702	-1.51202e-05	0.00362958
12.8105	12.7015	-0.000927076	0.00411109
12.8109	12.701	-0.000488603	0.00334451
12.8114	12.7006	-0.000454128	0.00205095
12.8119	12.7001	0.000890433	0.002726
12.8124	12.6996	3.90981e-05	0.00374136
12.8128	12.6992	-0.00108559	0.00407765
12.8133	12.6987	-0.000407311	0.00323929
12.8138	12.6982	-0.000409112	0.00212584
12.8142	12.6978	0.000883762	0.00286456
12.8147	12.6973	9.83816e-05	0.00380036
12.8152	12.6968	-0.000966955	0.00399513
12.8157	12.6963	-0.000324949	0.0033073
12.8161	12.6959	-0.000337755	0.00216117
12.8166	12.6954	0.00082134	0.00268552
12.8171	12.6949	5.02985e-05	0.00381855
12.8176	12.6944	-0.00111013	0.0039889
12.818	12.694	-0.000375101	0.00315784
12.8185	12.6935	-0.000309415	0.00215322
12.819	12.693	0.000655956	0.00275058
12.8194	12.6926	7.99759e-05	0.00385313
12.8199	12.6921	-0.00104671	0.00400415
12.8204	12.6916	-0.000486534	0.00310244
12.8209	12.6912	-0.000275404	0.00214109
12.8213	12.6907	0.000677162	0.00276009
12.8218	12.6902	7.05055e-05	0.00391975
12.8223	12.6898	-0.00114054	0.00397891
12.8227	12.6893	-0.000351095	0.00309294
12.8232	12.6888	-0.000202512	0.00214436
12.8237	12.6884	0.000643953	0.00270683
12.8242	12.6879	0.000132928	0.00391057
12.8246	12.6874	-0.00120956	0.00390622
12.8251	12.6869	-0.000377634	0.00310507
12.8256	12.6865	-0.000169036	0.00223762
12.8261	12.686	0.000633217	0.00286735
12.8265	12.6855	7.38407e-05	0.00401972
12.827	12.685	-0.00116715	0.00379552
12.8275	12.6845	-0.000219652	0.00301633
12.8279	12.6841	-5.58017e-05	0.0021238
12.8284	12.6836	0.000505376	0.0028907
12.8289	12.6831	0.000210082	0.00404135
12.8294	12.6826	-0.00130366	0.0038687
12.8298	12.6822	-0.000332422	0.00303968
12.8303	12.6817	5.36337e-05	0.00220132
12.8308	12.6812	0.000444291	0.00286284
12.8312	12.6808	0.000137726	0.00406143
12.8317	12.6803	-0.00128445	0.00380175
12.8322	12.6798	-0.000323487	0.00299297
12.8327	12.6794	-3.17116e-07	0.00221238
12.8331	12.6789	0.000506178	0.00290128
12.8336	12.6784	0.000151262	0.00402997
12.8341	12.6779	-0.00135167	0.00388689
12.8346	12.6775	-0.000340822	0.00300887
12.835	12.677	5.51675e-05	0.00227047
12.8355	12.6765	0.000387005	0.0029329
12.836	12.676	0.000126721	0.00412649
12.8364	12.6755	-0.00136988	0.00379847
12.8369	12.6751	-0.000247528	0.00292479
12.8374	12.6746	0.000144396	0.00214699
12.8379	12.6741	0.000330254	0.0028907
12.8383	12.6736	0.000270168	0.00412993
12.8388	12.6732	-0.00143937	0.00377266
12.8393	12.6727	-0.000245994	0.00298846
12.8397	12.6722	0.000188876	0.00218575
12.8402	12.6718	0.000377	0.00293553
12.8407	12.6713	0.000259164	0.00415001
12.8412	12.6708	-0.00139362	0.00367532
12.8416	12.6704	-0.000347225	0.00302116
12.8421	12.6699	0.000312116	0.00226392
12.8426	12.6694	0.000361929	0.00300403
12.8431	12.669	0.000221354	0.00413337
12.8435	12.6685	-0.0013218	0.00374554
12.844	12.668	-0.000269001	0.00295626
12.8445	12.6676	0.000227756	0.00231669
12.8449	12.6671	0.00028144	0.0031004
12.8454	12.6666	0.000265299	0.00422302
12.8459	12.6661	-0.00137675	0.00367752
12.8464	12.6657	-0.000260066	0.00282204
12.8468	12.6652	0.000315183	0.00237274
12.8473	12.6647	0.000212151	0.00295142
12.8478	12.6642	0.000205748	0.00424171
12.8482	12.6638	-0.00128959	0.00364778
12.8487	12.6633	-0.000320152	0.00264955
12.8492	12.6628	0.000409281	0.00233817
12.8497	12.6624	0.000160465	0.00305681
12.8501	12.6619	0.000236157	0.00422834
12.8506	12.6614	-0.00144991	0.00368965
12.8511	12.661	-0.000315818	0.0027305
12.8516	12.6605	0.000419482	0.00225318
12.852	12.66	9.14438e-05	0.00306427
12.8525	12.6595	0.000249694	0.0041455
12.853	12.6591	-0.00133587	0.00373325
12.8534	12.6586	-0.000376903	0.0027319
12.8539	12.6582	0.000436818	0.00224352
12.8544	12.6577	0.000230557	0.00311302
12.8549	12.6572	0.000184007	0.00421073
12.8553	12.6567	-0.0013246	0.00361492
12.8558	12.6562	-0.000353895	0.0027727
12.8563	12.6558	0.000575931	0.00233087
12.8567	12.6553	0.000118054	0.00316735
12.8572	12.6548	0.000144396	0.00426055
12.8577	12.6543	-0.00116562	0.00371113
12.8582	12.6539	-0.000328819	0.0026729
12.8586	12.6534	0.000515113	0.00227605
12.8591	12.6529	6.71704e-05	0.0031426
12.8596	12.6524	8.3311e-05	0.004214
12.8601	12.652	-0.00114154	0.00368187
12.8605	12.6515	-0.000312215	0.00266823
12.861	12.651	0.00075412	0.00235422
12.8615	12.6505	5.41687e-05	0.00308467
12.8619	12.6501	7.05055e-05	0.00434118
12.8624	12.6496	-0.00113747	0.00354969
12.8629	12.6491	-0.000391973	0.00259489
12.8634	12.6487	0.000662627	0.00236356
12.8638	12.6482	5.18323e-05	0.00318447
12.8643	12.6477	-3.19921e-05	0.00419876
12.8648	12.6472	-0.00116995	0.00366228
12.8652	12.6468	-0.000460727	0.00249729
12.8657	12.6463	0.000658756	0.00233489
12.8662	12.6458	2.67564e-05	0.00315489
12.8667	12.6453	-0.000231191	0.00426694
12.8671	12.6448	-0.000989962	0.00355641
12.8676	12.6444	-0.000520082	0.00255302
12.8681	12.6439	0.000765855	0.00245853
12.8686	12.6434	8.68424e-05	0.00325593
12.869	12.643	-0.000144495	0.00431504
12.8695	12.6425	-0.00106638	0.00350192
12.87	12.642	-0.000406776	0.0025513
12.8704	12.6416	0.000752854	0.00242208
12.8709	12.6411	1.22208e-05	0.00316735
12.8714	12.6406	-0.000204849	0.00418008
12.8719	12.6402	-0.00104084	0.00363999
12.8723	12.6397	-0.000455127	0.00236512
12.8728	12.6392	0.000773524	0.00245461
12.8733	12.6388	2.2155e-05	0.00319955
12.8737	12.6383	-0.000217654	0.0041455
12.8742	12.6378	-0.000967953	0.00364139
12.8747	12.6374	-0.000406509	0.00235841
12.8752	12.6369	0.000922108	0.00248156
12.8756	12.6364	-6.40057e-05	0.00335074
12.8761	12.6359	-0.000230656	0.00420745
12.8766	12.6355	-0.000932943	0.00350454
12.8771	12.635	-0.000561227	0.0023335
12.8775	12.6345	0.000989328	0.00251844
12.878	12.634	-8.31427e-05	0.00329222
12.8785	12.6336	-0.000421115	0.00413042
12.8789	12.6331	-0.000861389	0.00360902
12.8794	12.6326	-0.000456661	0.00225318
12.8799	12.6322	0.00100087	0.00248656
12.8804	12.6317	1.52885e-05	0.00328379
12.8808	12.6312	-0.000282805	0.00421728
12.8813	12.6307	-0.000906869	0.00352822
12.8818	12.6303	-0.000574229	0.00225147
12.8822	12.6298	0.00100574	0.00255441
12.8827	12.6293	-7.52062e-05	0.00338966
12.8832	12.6289	-0.000406312	0.0041201
12.8837	12.6284	-0.000694668	0.00354207
12.8841	12.6279	-0.000522614	0.00218157
12.8846	12.6275	0.00094738	0.00257277
12.8851	12.627	-2.81932e-05	0.00336024
12.8856	12.6265	-0.000483003	0.00415189
12.886	12.626	-0.000894866	0.00349692
12.8865	12.6255	-0.000488335	0.0022359
12.887	12.6251	0.00111383	0.00260161
12.8874	12.6246	-8.16089e-05	0.00344898
12.8879	12.6241	-0.000614375	0.00417181
12.8884	12.6236	-0.000783629	0.00354969
12.8889	12.6231	-0.000541822	0.00224524
12.8893	12.6227	0.0010985	0.00269749
12.8898	12.6222	-7.31374e-05	0.00341924
12.8903	12.6218	-0.000568896	0.00428047
12.8907	12.6213	-0.000601106	0.0033895
12.8912	12.6208	-0.000531817	0.00213437
12.8917	12.6203	0.00107089	0.00265577
12.8922	12.6198	-2.61243e-05	0.00348356
12.8926	12.6194	-0.000704139	0.0042263
12.8931	12.6189	-0.000670662	0.00335417
12.8936	12.6184	-0.000522347	0.00207618
12.8941	12.618	0.000978858	0.00259226
12.8945	12.6175	-9.79458e-05	0.00357477
12.895	12.617	-0.000713609	0.0040057
12.8955	12.6165	-0.000523149	0.00336786
12.8959	12.6161	-0.000582433	0.00213486
12.8964	12.6156	0.000859221	0.00274124
12.8969	12.6151	-4.65988e-05	0.0035315
12.8974	12.6146	-0.000651989	0.0041768
12.8978	12.6142	-0.000604441	0.0032774
12.8983	12.6137	-0.000487604	0.00217813
12.8988	12.6132	0.000923374	0.00269577
