# 1304     AichiSR QXAFS
# Start     : 8.9544
# End       : 9.0544
# Dir       : Backward
# Points    : 300
# ScanTime  : 1.01549
# Date      : 13.04.23 22:49
# Ring Cur. : 0.9[mA]
12.7557	12.612	0.000973989	0.00267569
12.7562	12.6125	-9.6947e-05	0.00340367
12.7566	12.613	-0.000441055	0.00427022
12.7571	12.6134	-0.00100963	0.00365589
12.7576	12.6139	-0.000527216	0.00232587
12.7581	12.6144	0.00098066	0.00266871
12.7585	12.6148	-6.75372e-05	0.0034988
12.759	12.6153	-0.000611308	0.00421589
12.7595	12.6158	-0.000828912	0.00362115
12.7599	12.6163	-0.000458194	0.00236136
12.7604	12.6167	0.0010144	0.0025812
12.7609	12.6172	-5.68005e-05	0.003399
12.7614	12.6177	-0.000548956	0.00420311
12.7618	12.6182	-0.000731747	0.00360902
12.7623	12.6186	-0.000586303	0.0023779
12.7628	12.6191	0.00093131	0.00275885
12.7632	12.6196	-0.00020278	0.00352962
12.7637	12.62	-0.000548421	0.00427612
12.7642	12.6205	-0.000768826	0.00357305
12.7647	12.621	-0.000518013	0.00235578
12.7651	12.6215	0.00100747	0.00258727
12.7656	12.622	-1.95253e-05	0.00348291
12.7661	12.6224	-0.000759891	0.00423097
12.7666	12.6229	-0.000855718	0.0034798
12.767	12.6234	-0.000547155	0.00226253
12.7675	12.6238	0.00107495	0.00286112
12.768	12.6243	-6.34707e-05	0.00353257
12.7684	12.6248	-0.000737882	0.00419205
12.7689	12.6253	-0.000653255	0.00353724
12.7694	12.6257	-0.000576565	0.00217502
12.7699	12.6262	0.00104274	0.00275558
12.7703	12.6267	-0.000162437	0.00359796
12.7708	12.6272	-0.000752953	0.004219
12.7713	12.6277	-0.00056763	0.00361664
12.7717	12.6281	-0.000667327	0.00228727
12.7722	12.6286	0.00106862	0.00283556
12.7727	12.6291	-0.00010055	0.00363393
12.7732	12.6295	-0.000678599	0.00424998
12.7736	12.63	-0.000576565	0.00338064
12.7741	12.6305	-0.000564295	0.00228711
12.7746	12.6309	0.00114351	0.0028404
12.7751	12.6314	-1.10538e-05	0.00368826
12.7755	12.6319	-0.000777494	0.00423236
12.776	12.6323	-0.000548956	0.00332336
12.7765	12.6328	-0.000549224	0.00228432
12.7769	12.6333	0.00102	0.00277812
12.7774	12.6337	-6.98735e-05	0.00379101
12.7779	12.6342	-0.000785163	0.00423145
12.7784	12.6347	-0.000429783	0.00349987
12.7788	12.6352	-0.000555359	0.0022563
12.7793	12.6356	0.00101947	0.00271944
12.7798	12.6361	1.68223e-05	0.00362426
12.7802	12.6366	-0.000815375	0.00416681
12.7807	12.6371	-0.000524148	0.00338171
12.7812	12.6376	-0.000547423	0.00222516
12.7817	12.638	0.000938979	0.00273034
12.7821	12.6385	-9.28806e-05	0.00373373
12.7826	12.639	-0.000854184	0.00411093
12.7831	12.6394	-0.000579633	0.00339589
12.7836	12.6399	-0.000474335	0.00214715
12.784	12.6403	0.000860488	0.00280384
12.7845	12.6408	-9.48782e-05	0.00372391
12.785	12.6413	-0.000885128	0.00426178
12.7854	12.6418	-0.000496272	0.00328846
12.7859	12.6422	-0.000545889	0.00227621
12.7864	12.6427	0.000897299	0.00281909
12.7869	12.6431	-2.35917e-05	0.00390123
12.7873	12.6436	-0.000977424	0.0040289
12.7878	12.6441	-0.00043212	0.00325872
12.7883	12.6446	-0.00046713	0.00220164
12.7887	12.645	0.000889363	0.00281753
12.7892	12.6455	0.000126989	0.0038396
12.7897	12.646	-0.000906869	0.00404725
12.7902	12.6465	-0.000341357	0.00330542
12.7906	12.647	-0.000300943	0.00213142
12.7911	12.6474	0.000801936	0.00291046
12.7916	12.6479	5.77001e-05	0.00379708
12.7921	12.6484	-0.00104438	0.00409396
12.7925	12.6489	-0.000453325	0.00323429
12.793	12.6493	-0.000477135	0.00236168
12.7935	12.6498	0.000674362	0.00301944
12.7939	12.6503	-2.05241e-05	0.00397145
12.7944	12.6508	-0.0011224	0.00409847
12.7949	12.6512	-0.00038944	0.00325281
12.7954	12.6517	-0.000238057	0.00229211
12.7958	12.6522	0.00072578	0.00277238
12.7963	12.6526	4.51621e-05	0.00398015
12.7968	12.6531	-0.00125251	0.00401021
12.7972	12.6536	-0.000303012	0.00322823
12.7977	12.6541	-0.00027387	0.00221689
12.7982	12.6545	0.000637016	0.00292946
12.7987	12.655	2.90927e-05	0.00407109
12.7991	12.6555	-0.00120036	0.0039976
12.7996	12.656	-0.000313481	0.00325855
12.8001	12.6564	-0.000104349	0.00226515
12.8006	12.6569	0.000566995	0.0029715
12.801	12.6574	9.35127e-05	0.0040334
12.8015	12.6579	-0.00123311	0.0039386
12.802	12.6583	-0.000256463	0.00311006
12.8024	12.6588	-1.20526e-05	0.00221909
12.8029	12.6593	0.000442222	0.00297182
12.8034	12.6597	9.5314e-05	0.00400726
12.8039	12.6602	-0.00133027	0.00400554
12.8043	12.6607	-0.000274601	0.00312424
12.8048	12.6612	-0.000124021	0.00224475
12.8053	12.6616	0.000569796	0.0029438
12.8057	12.6621	0.000211883	0.0040239
12.8062	12.6626	-0.00131233	0.00397285
12.8067	12.663	-0.000385838	0.00317824
12.8072	12.6635	-9.56807e-05	0.002225
12.8076	12.6639	0.000279103	0.0029547
12.8081	12.6644	0.000198882	0.00411903
12.8086	12.6649	-0.00138829	0.00402079
12.8091	12.6654	-0.000373567	0.0030087
12.8095	12.6659	2.78264e-05	0.00229441
12.81	12.6663	0.000377802	0.00302927
12.8105	12.6668	0.000118321	0.0041623
12.8109	12.6673	-0.00141203	0.00393392
12.8114	12.6678	-0.000313749	0.00308188
12.8119	12.6682	5.82351e-05	0.00226596
12.8124	12.6687	0.000364265	0.00293413
12.8128	12.6692	0.000200612	0.00427612
12.8133	12.6696	-0.0015248	0.00385157
12.8138	12.6701	-0.00038277	0.00303877
12.8142	12.6706	0.000123921	0.0022105
12.8147	12.671	0.000469831	0.00304607
12.8152	12.6715	0.000159199	0.00432578
12.8157	12.672	-0.00144657	0.00388942
12.8161	12.6724	-0.000360298	0.00301337
12.8166	12.6729	0.000139794	0.00228384
12.8171	12.6734	0.000416682	0.00308048
12.8176	12.6738	0.000106051	0.0041877
12.818	12.6743	-0.00146418	0.00370555
12.8185	12.6748	-0.000238325	0.0030196
12.819	12.6753	0.00028424	0.00219279
12.8194	12.6758	0.000380335	0.00297773
12.8199	12.6762	9.89166e-05	0.00432889
12.8204	12.6767	-0.00142203	0.00382306
12.8209	12.6772	-0.000385303	0.00300092
12.8213	12.6777	0.000317984	0.00231342
12.8218	12.6782	0.000281904	0.00293413
12.8223	12.6786	0.000379336	0.00418738
12.8227	12.6791	-0.00143737	0.00376815
12.8232	12.6795	-0.000213784	0.0029497
12.8237	12.68	0.000322318	0.00236389
12.8242	12.6805	0.000333054	0.00311597
12.8246	12.681	0.000283241	0.00428686
12.8251	12.6815	-0.00156134	0.00373153
12.8256	12.6819	-0.000287407	0.00284851
12.8261	12.6824	0.000340456	0.00242675
12.8265	12.6828	0.000167135	0.00305058
12.827	12.6833	0.000219285	0.00415828
12.8275	12.6838	-0.0014297	0.00370898
12.8279	12.6843	-0.000349294	0.00289194
12.8284	12.6847	0.000340723	0.00230735
12.8289	12.6852	0.000238226	0.00310572
12.8294	12.6857	0.000150531	0.00436363
12.8298	12.6862	-0.00133587	0.00377077
12.8303	12.6867	-0.000282341	0.00279262
12.8308	12.6871	0.000457096	0.0023684
12.8312	12.6876	0.000231092	0.00308032
12.8317	12.6881	0.000275304	0.00434618
12.8322	12.6886	-0.00145831	0.00381888
12.8327	12.689	-0.000309415	0.0027523
12.8331	12.6895	0.000412277	0.00232136
12.8336	12.6899	0.000109386	0.00303345
12.8341	12.6904	0.000203679	0.00431971
12.8346	12.6909	-0.00146318	0.00375258
12.835	12.6914	-0.000352825	0.00280024
12.8355	12.6918	0.000471632	0.00244248
12.836	12.6923	0.000147196	0.00320938
12.8364	12.6928	0.000111918	0.00436658
12.8369	12.6932	-0.00125665	0.00371661
12.8374	12.6937	-0.00033829	0.00265078
12.8379	12.6942	0.000477232	0.00246411
12.8383	12.6946	0.000110385	0.00322044
12.8388	12.6951	3.34267e-05	0.00428407
12.8393	12.6956	-0.0013338	0.00373137
12.8397	12.6961	-0.000452327	0.00270404
12.8402	12.6965	0.000548857	0.00244592
12.8407	12.697	9.68478e-05	0.00320315
12.8412	12.6975	0.000118785	0.00433528
12.8416	12.698	-0.00122617	0.00367704
12.8421	12.6984	-0.000468663	0.00257514
12.8426	12.6989	0.000730382	0.00257777
12.8431	12.6994	5.82351e-05	0.00319381
12.8435	12.6998	5.18323e-05	0.00439305
12.844	12.7003	-0.00120343	0.00362566
12.8445	12.7008	-0.000442856	0.00264627
12.8449	12.7012	0.000701703	0.00245821
12.8454	12.7017	3.28917e-05	0.00336319
12.8459	12.7022	3.67618e-05	0.00429169
12.8464	12.7026	-0.00118042	0.00366367
12.8468	12.7031	-0.000353895	0.00266093
12.8473	12.7036	0.000660558	0.00243469
12.8478	12.7041	5.95014e-05	0.00331402
12.8482	12.7045	-7.98616e-06	0.00437748
12.8487	12.705	-0.00110653	0.00367908
12.8492	12.7055	-0.000398108	0.00255629
12.8497	12.706	0.00077966	0.00254073
12.8501	12.7065	6.67066e-05	0.00329641
12.8506	12.707	2.67564e-05	0.00427284
12.8511	12.7074	-0.00100783	0.00362083
12.8516	12.7079	-0.000413446	0.00254835
12.852	12.7084	0.000757455	0.00257653
12.8525	12.7089	-8.10739e-05	0.00333565
12.853	12.7093	-0.000207381	0.00417229
12.8534	12.7098	-0.00109579	0.00362271
12.8539	12.7102	-0.000505207	0.00254228
12.8544	12.7107	0.000842617	0.0026416
12.8549	12.7112	-8.88142e-05	0.00324847
12.8553	12.7117	-0.000208647	0.00434446
12.8558	12.7121	-0.00110266	0.00352044
12.8563	12.7126	-0.000401978	0.00250475
12.8567	12.7131	0.000796603	0.00260128
12.8572	12.7135	1.68223e-05	0.00338187
12.8577	12.714	-0.000203582	0.00429078
12.8582	12.7145	-0.00098816	0.00360091
12.8586	12.715	-0.00043772	0.00240683
12.8591	12.7154	0.000818272	0.00255613
12.8596	12.7159	-3.25271e-05	0.00330919
12.8601	12.7164	-0.000181574	0.00436937
12.8605	12.7169	-0.000955683	0.00356854
12.861	12.7174	-0.000475066	0.00238692
12.8615	12.7178	0.000899368	0.00256113
12.8619	12.7183	-2.94595e-05	0.00347873
12.8624	12.7188	-0.000447458	0.00431069
12.8629	12.7192	-0.000903534	0.00359484
12.8634	12.7197	-0.000528482	0.00243765
12.8638	12.7201	0.000989863	0.00256875
12.8643	12.7206	-1.25876e-05	0.0035592
12.8648	12.7211	-0.000499607	0.00435675
12.8652	12.7216	-0.000919139	0.00353912
12.8657	12.722	-0.000623846	0.00231218
12.8662	12.7225	0.0010947	0.00270028
12.8667	12.723	-8.4409e-05	0.00352822
12.8671	12.7234	-0.000480666	0.00426973
12.8676	12.7239	-0.000729678	0.00368375
12.8681	12.7244	-0.000586767	0.00233554
12.8686	12.7248	0.00105221	0.00266528
12.869	12.7253	-0.000103617	0.00349832
12.8695	12.7258	-0.000593704	0.00427547
12.87	12.7263	-0.000762691	0.00351888
12.8704	12.7267	-0.000490939	0.00227793
12.8709	12.7272	0.000991396	0.0027042
12.8714	12.7277	-2.8657e-05	0.00351684
12.8719	12.7282	-0.000645051	0.00435552
12.8723	12.7286	-0.000843983	0.00358722
12.8728	12.7291	-0.000552292	0.00230531
12.8733	12.7296	0.00106882	0.0028281
12.8737	12.73	-2.02566e-05	0.00349971
12.8742	12.7305	-0.000553825	0.00427161
12.8747	12.731	-0.000657589	0.00351282
12.8752	12.7315	-0.000648921	0.00229006
12.8756	12.7319	0.00110743	0.00275944
12.8761	12.7324	1.37547e-05	0.00360623
12.8766	12.7329	-0.000641252	0.00431086
12.8771	12.7333	-0.000713074	0.00355265
12.8775	12.7338	-0.000679865	0.00231686
12.878	12.7343	0.000985992	0.00275198
12.8785	12.7348	-0.000185908	0.00352371
12.8789	12.7353	-0.000729946	0.00414132
12.8794	12.7357	-0.000609774	0.00352323
12.8799	12.7362	-0.000661727	0.00223262
12.8804	12.7367	0.00100467	0.00276615
12.8808	12.7372	-0.000129692	0.00366179
12.8813	12.7377	-0.000765758	0.00415312
12.8818	12.7381	-0.000722544	0.00340507
12.8822	12.7386	-0.000791298	0.00225597
12.8827	12.7391	0.000970387	0.00272551
12.8832	12.7395	-6.01356e-05	0.00367425
12.8837	12.74	-0.000810239	0.0041659
12.8841	12.7405	-0.000472534	0.00349692
12.8846	12.741	-0.000562761	0.00231186
12.8851	12.7414	0.001008	0.0028004
12.8856	12.7419	-8.95455e-05	0.00368949
12.886	12.7424	-0.000861389	0.00419237
12.8865	12.7428	-0.000610309	0.00339605
12.887	12.7433	-0.00048607	0.00220025
12.8874	12.7438	0.000901901	0.00272691
12.8879	12.7442	-4.65988e-05	0.00368703
12.8884	12.7447	-0.000847318	0.00419065
12.8889	12.7452	-0.000471	0.00340023
12.8893	12.7457	-0.000556091	0.00221303
12.8898	12.7462	0.000993198	0.00281253
12.8903	12.7466	6.95067e-05	0.00371129
12.8907	12.7471	-0.000957752	0.00413181
12.8912	12.7476	-0.000524416	0.00333345
12.8917	12.7481	-0.0005799	0.00220336
12.8922	12.7485	0.000909837	0.00277442
12.8926	12.749	-2.58223e-06	0.00385576
12.8931	12.7494	-0.000961354	0.00405069
12.8936	12.7499	-0.000529017	0.00334263
12.8941	12.7504	-0.000433386	0.00219435
12.8945	12.7509	0.000827279	0.00291701
12.895	12.7513	-2.71232e-05	0.00381093
12.8955	12.7518	-0.000992031	0.00403045
12.8959	12.7523	-0.000409576	0.00326994
12.8964	12.7527	-0.000472266	0.00216879
12.8969	12.7532	0.000662092	0.00278483
12.8974	12.7536	-6.71985e-06	0.0038528
12.8978	12.7541	-0.00100783	0.00415296
12.8983	12.7546	-0.000448456	0.00331713
12.8988	12.7551	-0.000386373	0.00216846
