# 1304     AichiSR QXAFS
# Start     : 8.9544
# End       : 9.0544
# Dir       : Forward
# Points    : 300
# ScanTime  : 1.01549
# Date      : 13.04.23 22:50
# Ring Cur. : 1[mA]
12.7557	12.756	5.28312e-06	0.00391417
12.7562	12.7555	-0.00129292	0.00396539
12.7566	12.755	-0.000368698	0.00314973
12.7571	12.7546	-9.87483e-05	0.00223402
12.7576	12.7541	0.000598938	0.00275402
12.7581	12.7536	2.42238e-05	0.00398842
12.7585	12.7531	-0.00125378	0.00384846
12.759	12.7527	-0.000385838	0.00305992
12.7595	12.7522	-0.000203315	0.00216412
12.7599	12.7518	0.000626814	0.00280491
12.7604	12.7513	7.66408e-05	0.00403652
12.7609	12.7508	-0.00129266	0.00385436
12.7614	12.7503	-0.000341357	0.00313932
12.7618	12.7499	-0.00013836	0.00210839
12.7623	12.7494	0.000515845	0.0028703
12.7628	12.749	0.000175339	0.0040647
12.7632	12.7485	-0.00129185	0.00387149
12.7637	12.748	-0.000344425	0.00306991
12.7642	12.7475	-2.84973e-06	0.00215789
12.7647	12.7471	0.000378337	0.00289366
12.7651	12.7466	0.000105248	0.00410814
12.7656	12.7461	-0.00137882	0.00377807
12.7661	12.7456	-0.0003677	0.00295545
12.7666	12.7452	-3.61297e-05	0.00213953
12.767	12.7447	0.000482101	0.00284212
12.7675	12.7442	0.000107584	0.00420123
12.768	12.7437	-0.00159175	0.00379397
12.7684	12.7433	-0.000384839	0.00288399
12.7689	12.7428	7.79071e-05	0.00235143
12.7694	12.7423	0.000373201	0.00305262
12.7699	12.7419	0.000187075	0.00403824
12.7703	12.7414	-0.00135221	0.00381125
12.7708	12.7409	-0.000352094	0.0030509
12.7713	12.7404	0.000151797	0.00225302
12.7717	12.74	0.000333589	0.00296012
12.7722	12.7395	0.000118321	0.0042263
12.7727	12.739	-0.0014243	0.00377217
12.7732	12.7386	-0.000284072	0.00293741
12.7736	12.7381	0.000116787	0.00220787
12.7741	12.7376	0.000391071	0.00294503
12.7746	12.7372	0.000348927	0.00419876
12.7751	12.7367	-0.00141103	0.00362491
12.7755	12.7362	-0.000428784	0.00281393
12.776	12.7357	0.000113185	0.00224073
12.7765	12.7352	0.000317716	0.00289349
12.7769	12.7347	0.000185809	0.0042431
12.7774	12.7343	-0.00153173	0.00369653
12.7779	12.7338	-0.000255197	0.00295904
12.7784	12.7333	0.0002671	0.00219091
12.7788	12.7328	0.000262499	0.00296978
12.7793	12.7324	0.000280905	0.00416263
12.7798	12.7319	-0.00145271	0.0036386
12.7802	12.7315	-0.000219652	0.00289382
12.7807	12.731	0.000164335	0.00217862
12.7812	12.7305	0.000270436	0.00298658
12.7817	12.73	0.000146928	0.00428481
12.7821	12.7295	-0.00134534	0.00357353
12.7826	12.7291	-0.000348028	0.00284646
12.7831	12.7286	0.000321051	0.0022658
12.7836	12.7282	0.000266637	0.00303361
12.784	12.7277	0.000151797	0.00418475
12.7845	12.7272	-0.00137548	0.00384518
12.785	12.7267	-0.000373032	0.00285457
12.7854	12.7263	0.00031258	0.0022454
12.7859	12.7258	0.000202948	0.00315194
12.7864	12.7253	0.000112721	0.00433045
12.7869	12.7248	-0.00141256	0.00365385
12.7873	12.7243	-0.000254662	0.00276271
12.7878	12.7239	0.000320052	0.00228244
12.7883	12.7234	0.000181475	0.00304886
12.7887	12.7229	0.000203947	0.00424047
12.7892	12.7225	-0.00135708	0.00367113
12.7897	12.722	-0.000352825	0.00266184
12.7902	12.7216	0.000452227	0.00221566
12.7906	12.7211	2.57576e-05	0.00307967
12.7911	12.7206	0.000139794	0.00416091
12.7916	12.7201	-0.00131413	0.00364606
12.7921	12.7197	-0.000509612	0.00265405
12.7925	12.7192	0.000473629	0.00238611
12.793	12.7187	0.000110385	0.0031689
12.7935	12.7183	3.82956e-05	0.00429153
12.7939	12.7178	-0.00129572	0.0036241
12.7944	12.7173	-0.00034109	0.00266758
12.7949	12.7169	0.000584866	0.00230907
12.7954	12.7164	6.41028e-05	0.00296699
12.7958	12.7159	1.68223e-05	0.0042635
12.7963	12.7154	-0.00128192	0.00363377
12.7968	12.7149	-0.000331887	0.00266495
12.7972	12.7145	0.000573398	0.00239642
12.7977	12.714	0.000142862	0.00316751
12.7982	12.7135	-7.03373e-05	0.00419844
12.7987	12.713	-0.00124818	0.00373357
12.7991	12.7126	-0.000484002	0.00257498
12.7996	12.7121	0.000588201	0.00235873
12.8001	12.7117	2.60251e-05	0.00311114
12.8006	12.7112	-0.000138895	0.00427596
12.801	12.7107	-0.00116282	0.00353584
12.8015	12.7102	-0.0003761	0.00251737
12.802	12.7097	0.000571864	0.00243765
12.8024	12.7093	-6.45235e-06	0.00326731
12.8029	12.7088	-3.58622e-05	0.00421728
12.8034	12.7084	-0.00112754	0.0035891
12.8039	12.7079	-0.000453325	0.00258915
12.8043	12.7074	0.000672293	0.00241929
12.8048	12.7069	0.000123458	0.00328862
12.8053	12.7064	-0.000112553	0.0042358
12.8057	12.706	-0.00106745	0.00358271
12.8062	12.7055	-0.000438255	0.00248172
12.8067	12.705	0.000873489	0.0023961
12.8072	12.7045	2.70239e-05	0.0032279
12.8076	12.704	-0.000233188	0.00424858
12.8081	12.7036	-0.000972359	0.00369105
12.8086	12.7031	-0.000421115	0.00248468
12.8091	12.7026	0.000729579	0.00252811
12.8095	12.7022	-9.08118e-05	0.00321749
12.81	12.7017	-0.000258996	0.00434167
12.8105	12.7012	-0.0010994	0.00353584
12.8109	12.7007	-0.000416514	0.0024814
12.8114	12.7003	0.000846148	0.00240871
12.8119	12.6998	2.24225e-05	0.00323896
12.8124	12.6993	-0.000307881	0.00421229
12.8128	12.6989	-0.00103111	0.00363065
12.8133	12.6984	-0.000450793	0.00251131
12.8138	12.698	0.000859489	0.00263193
12.8142	12.6975	-7.95401e-05	0.00340383
12.8147	12.697	-0.000338825	0.00422179
12.8152	12.6965	-0.000899467	0.00351995
12.8157	12.6961	-0.000534617	0.0024151
12.8161	12.6956	0.000846683	0.00262931
12.8166	12.6951	-9.23456e-05	0.00337114
12.8171	12.6946	-0.000335757	0.00419565
12.8176	12.6941	-0.000794098	0.00352478
12.818	12.6937	-0.000563492	0.0024428
12.8185	12.6932	0.00088963	0.00267274
12.819	12.6927	-9.48782e-05	0.00340523
12.8194	12.6923	-0.000411645	0.00419344
12.8199	12.6918	-0.0010247	0.0035665
12.8204	12.6914	-0.000584234	0.00239126
12.8209	12.6909	0.00105582	0.00258137
12.8213	12.6904	-8.52115e-05	0.00333345
12.8218	12.6899	-0.000522614	0.00420048
12.8223	12.6895	-0.000852918	0.0034485
12.8227	12.689	-0.000627181	0.00233521
12.8232	12.6885	0.00100386	0.00256982
12.8237	12.6881	-9.46819e-05	0.00346267
12.8242	12.6876	-0.000501676	0.00428079
12.8246	12.6871	-0.000946748	0.00355109
12.8251	12.6866	-0.000625183	0.0022899
12.8256	12.6862	0.00101414	0.00269174
12.8261	12.6857	8.89112e-05	0.00346111
12.8265	12.6852	-0.000625379	0.00408323
12.827	12.6847	-0.000883594	0.00354658
12.8275	12.6842	-0.000558427	0.00224819
12.8279	12.6838	0.000898298	0.00272272
12.8284	12.6833	3.5228e-05	0.00356698
12.8289	12.6828	-0.000727146	0.00422195
12.8294	12.6824	-0.00076369	0.00362582
12.8298	12.6819	-0.000619512	0.00222983
12.8303	12.6814	0.000975791	0.00274591
12.8308	12.6809	-0.000152164	0.00350315
12.8312	12.6805	-0.000629713	0.00414829
12.8317	12.68	-0.00059984	0.00345145
12.8322	12.6795	-0.000625379	0.00216584
12.8327	12.6791	0.00099186	0.00277565
12.8331	12.6786	-1.7189e-05	0.00354798
12.8336	12.6781	-0.000755753	0.00413616
12.8341	12.6777	-0.000622312	0.0035796
12.8346	12.6772	-0.000571161	0.0022949
12.835	12.6767	0.00101467	0.00272068
12.8355	12.6762	-8.9813e-05	0.00352618
12.836	12.6757	-0.000658392	0.00416606
12.8364	12.6753	-0.000509612	0.00344571
12.8369	12.6748	-0.000660657	0.00208832
12.8374	12.6743	0.000949181	0.00275821
12.8379	12.6738	3.13578e-05	0.00360542
12.8383	12.6733	-0.000781364	0.00413927
12.8388	12.6729	-0.000619512	0.00341752
12.8393	12.6724	-0.000652988	0.00210946
12.8397	12.672	0.00104481	0.00272256
12.8402	12.6715	-0.000100817	0.00369604
12.8407	12.671	-0.000912469	0.00418287
12.8412	12.6705	-0.000622312	0.00334016
12.8416	12.6701	-0.000752489	0.00217174
12.8421	12.6696	0.000954585	0.00271494
12.8426	12.6691	-0.00014676	0.00360247
12.8431	12.6687	-0.000962353	0.00421057
12.8435	12.6682	-0.000593704	0.00332475
12.844	12.6678	-0.000616444	0.00218731
12.8445	12.6673	0.00083361	0.00282703
12.8449	12.6668	-5.16641e-05	0.00368498
12.8454	12.6663	-0.000969487	0.00411952
12.8459	12.6658	-0.000528018	0.00331944
12.8464	12.6654	-0.000619244	0.00210077
12.8468	12.6649	0.000852284	0.00288571
12.8473	12.6644	-3.27946e-05	0.00377995
12.8478	12.6639	-0.000915073	0.00400726
12.8482	12.6635	-0.000503406	0.00334623
12.8487	12.663	-0.000355697	0.0021034
12.8492	12.6625	0.000824943	0.00281098
12.8497	12.6621	6.99705e-05	0.00373947
12.8501	12.6616	-0.000920673	0.00408618
12.8506	12.6611	-0.000388905	0.00322742
12.8511	12.6607	-0.000327821	0.00216305
12.8516	12.6602	0.000925175	0.0028608
12.852	12.6597	7.53745e-05	0.00369449
12.8525	12.6593	-0.000979493	0.00400587
12.853	12.6588	-0.000423916	0.00317808
12.8534	12.6583	-0.000480934	0.00207554
12.8539	12.6579	0.000813403	0.00285162
12.8544	12.6574	3.36942e-05	0.00373701
12.8549	12.6569	-0.000951617	0.00400366
12.8553	12.6564	-0.000411449	0.00330108
12.8558	12.6559	-0.0002644	0.00213765
12.8563	12.6555	0.000768727	0.00282499
12.8567	12.655	-4.81327e-05	0.00377324
12.8572	12.6545	-0.00111167	0.0039976
12.8577	12.654	-0.00039604	0.00319209
12.8582	12.6536	-0.000441857	0.00219247
12.8586	12.6531	0.000685901	0.00284802
12.8591	12.6526	4.01681e-06	0.0038374
12.8596	12.6522	-0.00115228	0.00396694
12.8601	12.6517	-0.000410646	0.00321438
12.8605	12.6512	-0.000279006	0.00215011
12.861	12.6507	0.000785331	0.00287014
12.8615	12.6503	0.000157665	0.00386296
12.8619	12.6498	-0.00121056	0.00388083
12.8624	12.6493	-0.000375369	0.00312129
12.8629	12.6488	-0.000234526	0.00211511
12.8634	12.6484	0.000574932	0.00283589
12.8638	12.6479	6.08561e-06	0.00395105
12.8643	12.6474	-0.00113747	0.00402562
12.8648	12.6469	-0.000459996	0.00304451
12.8652	12.6465	-0.000166771	0.00213158
12.8657	12.646	0.000643418	0.00283261
12.8662	12.6455	3.34267e-05	0.0039976
12.8667	12.645	-0.00135454	0.00390123
12.8671	12.6445	-0.000308612	0.00314587
12.8676	12.6441	-0.000172371	0.00207709
12.8681	12.6436	0.000638817	0.00286096
12.8686	12.6431	0.000129789	0.00387369
12.869	12.6427	-0.00122463	0.00401209
12.8695	12.6422	-0.000327286	0.00306599
12.87	12.6418	-0.000128693	0.00224851
12.8704	12.6413	0.00046703	0.00292307
12.8709	12.6408	0.000158931	0.00398809
12.8714	12.6403	-0.00126198	0.00385452
12.8719	12.6399	-0.000390974	0.00304575
12.8723	12.6394	-8.84755e-05	0.00218903
12.8728	12.6389	0.00061688	0.0028594
12.8733	12.6385	0.000167403	0.00399293
12.8737	12.638	-0.00129112	0.00380798
12.8742	12.6375	-0.000289475	0.00300591
12.8747	12.6371	4.2897e-05	0.00228695
12.8752	12.6366	0.000514043	0.00290611
12.8756	12.6361	6.97742e-05	0.00409584
12.8761	12.6356	-0.0014261	0.00381265
12.8766	12.6352	-0.000303012	0.00296479
12.8771	12.6347	0.000126989	0.00229662
12.8775	12.6342	0.000469831	0.00286891
12.878	12.6337	9.75791e-05	0.00402299
12.8785	12.6333	-0.00151813	0.00375349
12.8789	12.6328	-0.000280005	0.0029933
12.8794	12.6323	6.43703e-05	0.0021973
12.8799	12.6319	0.000356061	0.00286268
12.8804	12.6314	0.000258896	0.00420901
12.8808	12.6309	-0.00145938	0.00380175
12.8813	12.6304	-0.000342089	0.00302255
12.8818	12.63	0.000164603	0.00236291
12.8822	12.6295	0.000375733	0.00283605
12.8827	12.629	0.000168402	0.00410953
12.8832	12.6286	-0.00133814	0.00368498
12.8837	12.6281	-0.000361832	0.00284974
12.8841	12.6276	0.00025483	0.00229613
12.8846	12.6271	0.00025763	0.00280958
12.8851	12.6267	0.000161268	0.00420622
12.8856	12.6262	-0.00147798	0.00366072
12.886	12.6257	-0.000402977	0.00287014
12.8865	12.6252	0.000195279	0.00218124
12.887	12.6247	0.000276571	0.00294766
12.8874	12.6243	0.000228755	0.00420294
12.8879	12.6238	-0.00145704	0.0037121
12.8884	12.6233	-0.000362563	0.0027741
12.8889	12.6229	0.000375002	0.0022935
12.8893	12.6224	0.000226954	0.00294675
12.8898	12.6219	0.00022542	0.00417369
12.8903	12.6215	-0.00149565	0.00375676
12.8907	12.621	-0.000307346	0.00294987
12.8912	12.6205	0.000239759	0.0023452
12.8917	12.62	0.000171469	0.00295126
12.8922	12.6195	0.000218019	0.00424826
12.8926	12.6191	-0.00148285	0.0037289
12.8931	12.6186	-0.000349026	0.00294987
12.8936	12.6181	0.000385204	0.00222516
12.8941	12.6177	0.000239224	0.00309401
12.8945	12.6172	0.000146928	0.00430103
12.895	12.6167	-0.00140029	0.00362459
12.8955	12.6162	-0.000402977	0.00282655
12.8959	12.6158	0.000346591	0.00235234
12.8964	12.6153	0.000175072	0.00299641
12.8969	12.6148	9.19788e-05	0.00429169
12.8974	12.6143	-0.00125611	0.00357133
12.8978	12.6139	-0.000304546	0.00267618
12.8983	12.6134	0.000507444	0.00236168
12.8988	12.6129	0.000133659	0.00311285
