# 1304     AichiSR QXAFS
# Start     : 8.9544
# End       : 9.0544
# Dir       : Forward
# Points    : 300
# ScanTime  : 1.01549
# Date      : 13.04.23 23:20
# Ring Cur. : 1[mA]
12.7557	12.7562	-0.0012139	0.0038796
12.7562	12.7557	-0.000435651	0.00299158
12.7566	12.7552	-3.58622e-05	0.00208381
12.7571	12.7548	0.000487969	0.00283449
12.7576	12.7543	0.000147731	0.00405848
12.7581	12.7538	-0.00130213	0.00379429
12.7585	12.7533	-0.000319617	0.0029774
12.759	12.7529	-6.14019e-05	0.0021923
12.7595	12.7524	0.000485971	0.00276009
12.7599	12.752	6.77054e-05	0.00404709
12.7604	12.7515	-0.00137702	0.00370399
12.7609	12.751	-0.000292276	0.00297757
12.7614	12.7505	-8.31427e-05	0.00217223
12.7618	12.7501	0.000500239	0.00283245
12.7623	12.7496	0.000167938	0.00397596
12.7628	12.7491	-0.00140569	0.00380347
12.7632	12.7487	-0.000279203	0.0029184
12.7637	12.7482	3.13578e-05	0.00217781
12.7642	12.7478	0.000414613	0.00289645
12.7647	12.7473	0.000159199	0.00403373
12.7651	12.7468	-0.00146191	0.00368343
12.7656	12.7463	-0.000253395	0.00286424
12.7661	12.7458	0.000254366	0.00218468
12.7666	12.7454	0.000475502	0.00299453
12.767	12.7449	0.000151262	0.00424686
12.7675	12.7444	-0.00135428	0.00373218
12.768	12.7439	-0.000287674	0.00284867
12.7684	12.7435	0.000230022	0.00222918
12.7689	12.743	0.000376536	0.00289554
12.7694	12.7425	0.000245895	0.00431848
12.7699	12.7421	-0.00143403	0.00374415
12.7703	12.7416	-0.000206115	0.00290128
12.7708	12.7411	0.000192211	0.0022527
12.7713	12.7406	0.000318982	0.00280073
12.7717	12.7402	0.00018481	0.00424933
12.7722	12.7397	-0.00141329	0.00367597
12.7727	12.7392	-0.000307079	0.00288915
12.7732	12.7388	0.000267635	0.00232652
12.7736	12.7383	0.000266298	0.00302411
12.7741	12.7378	0.000259699	0.00412649
12.7746	12.7374	-0.00127372	0.0037194
12.7751	12.7369	-0.000305812	0.0028871
12.7755	12.7364	0.000322318	0.00216256
12.776	12.7359	0.000100914	0.0029293
12.7765	12.7354	0.000245092	0.00424654
12.7769	12.735	-0.00138522	0.0036095
12.7774	12.7345	-0.000408042	0.00275042
12.7779	12.734	0.000370133	0.00224508
12.7784	12.7335	0.00024536	0.0029992
12.7788	12.733	7.25743e-05	0.00420778
12.7793	12.7326	-0.00143143	0.00368236
12.7798	12.7321	-0.000240126	0.00264471
12.7802	12.7317	0.000305446	0.00214264
12.7807	12.7312	0.000163069	0.00301837
12.7812	12.7307	0.000104784	0.004136
12.7817	12.7302	-0.00135041	0.00358083
12.7821	12.7297	-0.000311948	0.00263677
12.7826	12.7293	0.00035146	0.00224057
12.7831	12.7288	0.000237423	0.00310925
12.7836	12.7284	1.72861e-05	0.00415533
12.784	12.7279	-0.00133353	0.00355952
12.7845	12.7274	-0.00035336	0.00267306
12.785	12.7269	0.000516112	0.00219123
12.7854	12.7265	0.000182741	0.00302116
12.7859	12.726	0.00012986	0.00414394
12.7864	12.7255	-0.00136348	0.00354519
12.7869	12.725	-0.000263401	0.00256735
12.7873	12.7246	0.000566264	0.00235841
12.7878	12.7241	0.000138796	0.00309122
12.7883	12.7236	0.00015713	0.00417041
12.7887	12.7231	-0.00124231	0.00355453
12.7892	12.7227	-0.000380701	0.00268831
12.7897	12.7222	0.000573131	0.00236963
12.7902	12.7218	-5.64985e-06	0.00320455
12.7906	12.7213	4.16307e-05	0.00411264
12.7911	12.7208	-0.0011032	0.00352634
12.7916	12.7203	-0.000418048	0.00260907
12.7921	12.7199	0.000774059	0.0023802
12.7925	12.7194	0.000102983	0.00316563
12.793	12.7189	6.08561e-06	0.0042839
12.7935	12.7185	-0.00123591	0.00346874
12.7939	12.718	-0.000283804	0.00264176
12.7944	12.7175	0.000738782	0.00242568
12.7949	12.7171	5.0031e-05	0.00320594
12.7954	12.7166	4.05607e-05	0.00419328
12.7958	12.7161	-0.00114514	0.00367253
12.7963	12.7156	-0.000471731	0.00255597
12.7968	12.7151	0.000771794	0.00240232
12.7972	12.7147	5.36337e-05	0.00327026
12.7977	12.7142	-0.000104616	0.00422147
12.7982	12.7137	-0.00109553	0.00355748
12.7987	12.7133	-0.000445924	0.00244747
12.7991	12.7128	0.000841815	0.00250615
12.7996	12.7123	3.49605e-05	0.0032869
12.8001	12.7119	-0.000133758	0.00430709
12.8006	12.7114	-0.000959553	0.00355174
12.801	12.7109	-0.000451792	0.0024828
12.8015	12.7104	0.000800669	0.00247534
12.802	12.71	-6.16694e-05	0.00326527
12.8024	12.7095	-0.000197911	0.00424965
12.8029	12.709	-0.000986627	0.00353863
12.8034	12.7086	-0.000504209	0.00249713
12.8039	12.7081	0.000929242	0.00249074
12.8043	12.7076	-5.55342e-05	0.00316842
12.8048	12.7071	-0.00027107	0.00424809
12.8053	12.7067	-0.00102271	0.00349381
12.8057	12.7062	-0.000470197	0.00229801
12.8062	12.7057	0.000901169	0.0024909
12.8067	12.7052	3.90269e-05	0.00337983
12.8072	12.7047	-0.000327553	0.00412559
12.8076	12.7042	-0.000868791	0.00351077
12.8081	12.7038	-0.000396575	0.00242428
12.8086	12.7033	0.00102874	0.00256424
12.8091	12.7028	-2.38592e-06	0.0032715
12.8095	12.7024	-0.000282074	0.00413009
12.81	12.7019	-0.00087539	0.00352011
12.8105	12.7014	-0.00043212	0.00239282
12.8109	12.701	0.00101	0.00251844
12.8114	12.7005	-6.14019e-05	0.00333221
12.8119	12.7	-0.000411378	0.00425014
12.8124	12.6995	-0.000932212	0.00346423
12.8128	12.6991	-0.000571964	0.00231809
12.8133	12.6986	0.000951981	0.00265094
12.8138	12.6982	4.28431e-06	0.00327649
12.8142	12.6977	-0.000335222	0.00426383
12.8147	12.6972	-0.000820708	0.00360279
12.8152	12.6967	-0.000510344	0.00224057
12.8157	12.6963	0.00101387	0.00260595
12.8161	12.6958	-3.43284e-05	0.00346299
12.8166	12.6953	-0.000533886	0.0041514
12.8171	12.6948	-0.000725879	0.00340211
12.8176	12.6944	-0.000530283	0.00214543
12.818	12.6939	0.00113784	0.00265266
12.8185	12.6934	-9.33444e-05	0.00338826
12.819	12.6929	-0.0005855	0.00421884
12.8194	12.6925	-0.000684467	0.00351749
12.8199	12.692	-0.000554289	0.00227171
12.8204	12.6916	0.000980392	0.00258276
12.8209	12.6911	-2.76582e-05	0.00349086
12.8213	12.6906	-0.000570162	0.00415033
12.8218	12.6901	-0.000637186	0.00340539
12.8223	12.6897	-0.000683664	0.00223573
12.8227	12.6892	0.00110463	0.00262259
12.8232	12.6888	-2.71232e-05	0.00353413
12.8237	12.6883	-0.000738685	0.00421712
12.8242	12.6878	-0.000722277	0.00336319
12.8246	12.6873	-0.000606974	0.00225769
12.8251	12.6869	0.00103841	0.00270543
12.8256	12.6864	-2.25929e-05	0.0034675
12.8261	12.6859	-0.000777761	0.00415312
12.8265	12.6854	-0.000643054	0.00349553
12.827	12.6849	-0.000562761	0.00205981
12.8275	12.6844	0.0011059	0.00264659
12.8279	12.684	-3.25271e-05	0.00354567
12.8284	12.6835	-0.000804104	0.00403979
12.8289	12.683	-0.000555556	0.00333377
12.8294	12.6826	-0.000563296	0.00211585
12.8298	12.6821	0.000878893	0.00276148
12.8303	12.6816	-2.66593e-05	0.00359329
12.8308	12.6812	-0.000776228	0.00404414
12.8312	12.6807	-0.000516747	0.00326838
12.8317	12.6802	-0.000592171	0.00206529
12.8322	12.6797	0.00089243	0.00272862
12.8327	12.6793	4.62321e-05	0.0036277
12.8331	12.6788	-0.000800037	0.00412247
12.8336	12.6783	-0.000409576	0.00338654
12.8341	12.6779	-0.000498073	0.00210479
12.8346	12.6774	0.000943046	0.00261079
12.835	12.6769	-5.03978e-05	0.00370071
12.8355	12.6764	-0.000935012	0.00404881
12.836	12.6759	-0.000453325	0.00327772
12.8364	12.6755	-0.00055329	0.00211569
12.8369	12.675	0.000898565	0.00285178
12.8374	12.6745	-5.42679e-05	0.00373153
12.8379	12.674	-0.000880526	0.00408822
12.8383	12.6735	-0.000406045	0.00340695
12.8388	12.6731	-0.000537417	0.00216691
12.8393	12.6726	0.000914706	0.0027224
12.8397	12.6722	-5.77993e-05	0.00375021
12.8402	12.6717	-0.00103111	0.00411887
12.8407	12.6712	-0.000365631	0.00319086
12.8412	12.6708	-0.000424451	0.00214264
12.8416	12.6703	0.000736981	0.0027836
12.8421	12.6698	-5.52667e-05	0.00371505
12.8426	12.6694	-0.000986627	0.00410207
12.8431	12.6689	-0.000418779	0.00323864
12.8435	12.6684	-0.000387907	0.00213142
12.844	12.668	0.00093131	0.00286268
12.8445	12.6675	6.28365e-05	0.0036867
12.8449	12.667	-0.00108813	0.00394375
12.8454	12.6665	-0.000407846	0.00328739
12.8459	12.6661	-0.000291206	0.00215338
12.8464	12.6656	0.00086409	0.00274731
12.8468	12.6651	-2.05241e-05	0.00393285
12.8473	12.6646	-0.00110887	0.00402906
12.8478	12.6642	-0.000290474	0.00317545
12.8482	12.6637	-0.000304546	0.00215977
12.8487	12.6632	0.000705038	0.00279278
12.8492	12.6627	4.95672e-05	0.00380626
12.8497	12.6623	-0.00118936	0.00388738
12.8501	12.6618	-0.00027947	0.00321717
12.8506	12.6614	-0.000380505	0.00206979
12.8511	12.6609	0.000676431	0.00288071
12.8516	12.6604	0.000171273	0.00382698
12.852	12.6599	-0.00128345	0.00373759
12.8525	12.6595	-0.000318618	0.00310818
12.853	12.659	-0.000195378	0.00209218
12.8534	12.6585	0.00059587	0.00275853
12.8539	12.6581	4.87647e-05	0.0038265
12.8544	12.6576	-0.00127345	0.00390778
12.8549	12.6571	-0.000330888	0.00317652
12.8553	12.6566	-0.000119419	0.00217051
12.8558	12.6562	0.000714241	0.00292152
12.8563	12.6557	0.000157933	0.00398842
12.8567	12.6552	-0.00125531	0.00393843
12.8572	12.6547	-0.000225056	0.00310319
12.8577	12.6542	-1.43889e-05	0.00205997
12.8582	12.6538	0.000670028	0.00288415
12.8586	12.6533	0.0001526	0.00395326
12.8591	12.6528	-0.0013098	0.00385157
12.8596	12.6524	-0.000333956	0.00294487
12.8601	12.6519	-3.22596e-05	0.00215494
12.8605	12.6514	0.000535517	0.00285178
12.861	12.6509	0.000160198	0.00399185
12.8615	12.6505	-0.00127632	0.00374586
12.8619	12.65	-0.000260529	0.003021
12.8624	12.6495	2.01574e-05	0.00213486
12.8629	12.6491	0.000569796	0.00292045
12.8634	12.6486	0.00028424	0.00411592
12.8638	12.6481	-0.00142176	0.00365385
12.8643	12.6476	-0.000272871	0.00302304
12.8648	12.6472	8.2776e-05	0.00213142
12.8652	12.6467	0.00045196	0.00292463
12.8657	12.6462	0.000286309	0.0041396
12.8662	12.6457	-0.00145931	0.00380315
12.8667	12.6452	-0.000424451	0.00299625
12.8671	12.6448	3.5763e-05	0.00217223
12.8676	12.6443	0.000497172	0.00280958
12.8681	12.6438	0.000265299	0.00408634
12.8686	12.6433	-0.00152146	0.00380503
12.869	12.6429	-0.000316085	0.00300731
12.8695	12.6424	4.90322e-05	0.00214576
12.87	12.642	0.000406677	0.00295437
12.8704	12.6415	0.000169204	0.00413133
12.8709	12.641	-0.00138875	0.00373464
12.8714	12.6405	-0.000212785	0.00277812
12.8719	12.6401	0.000225955	0.00237102
12.8723	12.6396	0.000367065	0.00285645
12.8728	12.6391	0.000305446	0.00424654
12.8733	12.6387	-0.00139162	0.0037879
12.8737	12.6382	-0.000310414	0.00296651
12.8742	12.6378	0.000280905	0.00217255
12.8747	12.6373	0.000328988	0.00286998
12.8752	12.6368	0.000221086	0.00414878
12.8756	12.6363	-0.00144397	0.00364655
12.8761	12.6359	-0.000104616	0.0028331
12.8766	12.6354	0.000337923	0.00229769
12.8771	12.6349	0.000268902	0.00299797
12.8775	12.6344	0.000309048	0.00415484
12.878	12.6339	-0.00127118	0.0036168
12.8785	12.6335	-0.000189243	0.0028004
12.8789	12.633	0.000339189	0.00226532
12.8794	12.6325	0.000314916	0.00289505
12.8799	12.6321	0.000280905	0.00422474
12.8804	12.6316	-0.00138415	0.00367301
12.8808	12.6311	-0.000305081	0.00268192
12.8813	12.6307	0.000329452	0.00233972
12.8818	12.6302	0.000266565	0.00296651
12.8822	12.6297	0.000293175	0.00415484
12.8827	12.6292	-0.00143864	0.00365573
12.8832	12.6288	-0.000356696	0.00281442
12.8837	12.6283	0.000495174	0.00223466
12.8841	12.6278	0.000115253	0.00305181
12.8846	12.6274	0.00011932	0.00414083
12.8851	12.6269	-0.00131927	0.0035978
12.8856	12.6264	-0.000281271	0.00263242
12.886	12.6259	0.00047857	0.00219681
12.8865	12.6255	0.000167135	0.00308918
12.887	12.625	0.00011652	0.00421368
12.8874	12.6245	-0.00135474	0.00353101
12.8879	12.624	-0.000227321	0.00270216
12.8884	12.6235	0.000477767	0.00233521
12.8889	12.6231	0.000150264	0.00298207
12.8893	12.6226	9.83816e-05	0.00421991
12.8898	12.6221	-0.00134147	0.00362271
12.8903	12.6217	-0.00030888	0.00264955
12.8907	12.6212	0.000490573	0.00235717
12.8912	12.6207	0.000147731	0.00295266
12.8917	12.6202	-2.94595e-05	0.00404635
12.8922	12.6197	-0.00124918	0.00359173
12.8926	12.6193	-0.000378704	0.00257122
12.8931	12.6188	0.000486239	0.00221345
12.8936	12.6184	8.35785e-05	0.00302132
12.8941	12.6179	2.80939e-05	0.0042526
12.8945	12.6174	-0.00119169	0.00359034
12.895	12.6169	-0.000506277	0.00260939
12.8955	12.6165	0.000544523	0.00234193
12.8959	12.616	0.000130592	0.00316391
12.8964	12.6155	-4.14624e-05	0.00424981
12.8969	12.615	-0.00119629	0.0035855
12.8974	12.6146	-0.000207649	0.00255629
12.8978	12.6141	0.000674362	0.00225147
12.8983	12.6136	0.000112382	0.00314866
12.8988	12.6131	-9.51457e-05	0.00433265
