# 1304     AichiSR QXAFS
# Start     : 8.9544
# End       : 9.0544
# Dir       : Forward
# Points    : 300
# ScanTime  : 1.01549
# Date      : 13.04.23 22:59
# Ring Cur. : 0.9[mA]
12.7557	12.7561	0.000751587	0.00250631
12.7562	12.7556	2.11562e-05	0.00327321
12.7566	12.7551	-0.00027947	0.00426227
12.7571	12.7546	-0.000999432	0.00351872
12.7576	12.7542	-0.000562761	0.00241134
12.7581	12.7537	0.000790931	0.00250025
12.7585	12.7532	-1.99891e-05	0.0033545
12.759	12.7528	-0.000206115	0.00425432
12.7595	12.7523	-0.00104265	0.00351749
12.7599	12.7518	-0.000562226	0.00235046
12.7604	12.7514	0.000899368	0.00247238
12.7609	12.7509	-5.09328e-05	0.00330296
12.7614	12.7504	-0.000327821	0.00423703
12.7618	12.7499	-0.000937812	0.00340072
12.7623	12.7495	-0.00054662	0.00222951
12.7628	12.749	0.00094458	0.00250352
12.7632	12.7486	-4.453e-05	0.00333565
12.7637	12.7481	-0.000590369	0.00420901
12.7642	12.7476	-0.000932212	0.00337581
12.7647	12.7472	-0.000397306	0.0022563
12.7651	12.7467	0.000852087	0.00257949
12.7656	12.7462	-0.000147028	0.0033291
12.7661	12.7457	-0.000459996	0.00417927
12.7666	12.7452	-0.000891798	0.00338531
12.767	12.7448	-0.000571429	0.00233865
12.7675	12.7443	0.000894963	0.00248017
12.768	12.7438	-0.000213516	0.00339556
12.7684	12.7433	-0.000522347	0.00420311
12.7689	12.7429	-0.000778296	0.00332255
12.7694	12.7424	-0.000622579	0.00219402
12.7699	12.742	0.00102461	0.00263365
12.7703	12.7415	-0.000182376	0.00340678
12.7708	12.741	-0.000521348	0.00409584
12.7713	12.7405	-0.000813574	0.00347808
12.7717	12.74	-0.000574496	0.00211913
12.7722	12.7396	0.000893429	0.00266758
12.7727	12.7391	-0.000154964	0.00345349
12.7732	12.7387	-0.000595238	0.00416451
12.7736	12.7382	-0.000724346	0.0033699
12.7741	12.7377	-0.000672392	0.00213969
12.7746	12.7372	0.000980927	0.00270715
12.7751	12.7368	-0.000242391	0.00348881
12.7755	12.7363	-0.000673997	0.00416435
12.776	12.7358	-0.000737347	0.00345784
12.7765	12.7353	-0.000571696	0.00213577
12.7769	12.7348	0.00092744	0.00269421
12.7774	12.7344	5.57025e-05	0.00347201
12.7779	12.7339	-0.000745284	0.00412322
12.7784	12.7334	-0.000652988	0.00337597
12.7788	12.7329	-0.000636651	0.00206062
12.7793	12.7325	0.000920841	0.00262275
12.7798	12.732	-8.59429e-05	0.00350659
12.7802	12.7315	-0.000762691	0.0040938
12.7807	12.7311	-0.000633316	0.00341285
12.7812	12.7306	-0.000629713	0.00209545
12.7817	12.7301	0.000860488	0.00270232
12.7821	12.7296	-6.32032e-05	0.00356371
12.7826	12.7292	-0.000878993	0.00402922
12.7831	12.7287	-0.000707937	0.003281
12.7836	12.7282	-0.000625647	0.00201187
12.784	12.7278	0.000990326	0.00272723
12.7845	12.7273	-9.72145e-05	0.00361508
12.785	12.7268	-0.000805102	0.00412666
12.7854	12.7263	-0.000562493	0.00327724
12.7859	12.7259	-0.000593972	0.00215601
12.7864	12.7254	0.000969121	0.00274264
12.7869	12.7249	-1.25876e-05	0.00367752
12.7873	12.7244	-0.000929144	0.00412403
12.7878	12.724	-0.000646121	0.00332148
12.7883	12.7235	-0.000616712	0.00203538
12.7887	12.723	0.000896764	0.00265684
12.7892	12.7226	1.47535e-05	0.00368563
12.7897	12.7221	-0.000931677	0.00403529
12.7902	12.7216	-0.000519547	0.00332411
12.7906	12.7212	-0.000456928	0.00213158
12.7911	12.7207	0.000900099	0.00274886
12.7916	12.7202	0.000106318	0.00361992
12.7921	12.7197	-0.00103651	0.00406717
12.7925	12.7193	-0.000480203	0.00322651
12.793	12.7188	-0.000484002	0.00210684
12.7935	12.7184	0.000811406	0.00276009
12.7939	12.7179	5.46325e-05	0.00367597
12.7944	12.7174	-0.000990426	0.0040384
12.7949	12.7169	-0.000347225	0.00318308
12.7954	12.7165	-0.000498341	0.00216879
12.7958	12.716	0.000810871	0.00286424
12.7963	12.7155	-7.674e-05	0.00380535
12.7968	12.715	-0.00118222	0.00398702
12.7972	12.7145	-0.000390707	0.00322168
12.7977	12.7141	-0.00040938	0.00218779
12.7982	12.7136	0.000821608	0.00276722
12.7987	12.7131	-0.000146029	0.00379461
12.7991	12.7127	-0.00108659	0.00408027
12.7996	12.7122	-0.000485535	0.00314136
12.8001	12.7117	-0.000233188	0.00216879
12.8006	12.7113	0.000648555	0.00268101
12.801	12.7108	8.48448e-05	0.00378527
12.8015	12.7103	-0.00109299	0.00391664
12.802	12.7098	-0.000300943	0.0032438
12.8024	12.7094	-0.000265933	0.00210372
12.8029	12.7089	0.00064522	0.00277361
12.8034	12.7084	2.19587e-05	0.00385624
12.8039	12.708	-0.00121037	0.00400055
12.8043	12.7075	-0.000299213	0.00292882
12.8048	12.707	-0.000182109	0.00211011
12.8053	12.7065	0.000637016	0.00279106
12.8057	12.7061	8.15097e-05	0.00382682
12.8062	12.7056	-0.00126658	0.00401349
12.8067	12.7051	-0.000452327	0.00302132
12.8072	12.7046	-9.23456e-05	0.00215977
12.8076	12.7041	0.000533252	0.00283777
12.8081	12.7036	1.19533e-05	0.00392131
12.8086	12.7032	-0.00125017	0.00383133
12.8091	12.7027	-0.000430318	0.00312719
12.8095	12.7022	-0.000161634	0.0022359
12.81	12.7018	0.000637818	0.00275509
12.8105	12.7013	0.000156666	0.00399964
12.8109	12.7008	-0.00132694	0.00399276
12.8114	12.7004	-0.000331423	0.00299625
12.8119	12.6999	-0.000148561	0.00219402
12.8124	12.6994	0.000537586	0.00294643
12.8128	12.699	9.5314e-05	0.00398186
12.8133	12.6985	-0.00129446	0.00382403
12.8138	12.698	-0.000303012	0.00300994
12.8142	12.6976	-1.58342e-06	0.00215494
12.8147	12.6971	0.000459361	0.00289505
12.8152	12.6966	6.74379e-05	0.0040756
12.8157	12.6961	-0.0014113	0.00370039
12.8161	12.6957	-0.000403709	0.00304451
12.8166	12.6952	3.39617e-05	0.0021143
12.8171	12.6947	0.000513045	0.00289725
12.8176	12.6942	0.000136727	0.00401988
12.818	12.6938	-0.00148438	0.00373234
12.8185	12.6933	-0.000304279	0.00296946
12.819	12.6928	2.269e-05	0.0022236
12.8194	12.6924	0.000394674	0.00292136
12.8199	12.6919	0.000132125	0.00406733
12.8204	12.6914	-0.00143277	0.00373201
12.8209	12.691	-0.000249596	0.00301928
12.8213	12.6905	0.000128523	0.00225147
12.8218	12.69	0.000388539	0.00285457
12.8223	12.6895	0.0002643	0.00413009
12.8227	12.6891	-0.00147572	0.00377013
12.8232	12.6886	-0.000327821	0.00289661
12.8237	12.6882	0.000134925	0.00223246
12.8242	12.6877	0.000507177	0.00287841
12.8246	12.6872	0.000208548	0.00412059
12.8251	12.6867	-0.00150125	0.00370866
12.8256	12.6862	-0.000463795	0.00285908
12.8261	12.6858	6.10352e-05	0.00229908
12.8265	12.6853	0.000310047	0.00292791
12.827	12.6848	0.000142595	0.00418877
12.8275	12.6843	-0.00153193	0.00372751
12.8279	12.6838	-0.000257801	0.00280196
12.8284	12.6834	0.000243291	0.00219837
12.8289	12.6829	0.000247161	0.00292184
12.8294	12.6824	0.000210082	0.00425695
12.8298	12.682	-0.00145037	0.00368515
12.8303	12.6815	-0.000304011	0.00290128
12.8308	12.681	0.000239759	0.00230563
12.8312	12.6806	0.0002643	0.00292136
12.8317	12.6801	0.000261768	0.00417353
12.8322	12.6796	-0.0014409	0.00375644
12.8327	12.6791	-0.000287942	0.00284851
12.8331	12.6787	0.000275304	0.00228744
12.8336	12.6782	0.000321319	0.00295797
12.8341	12.6777	0.000252761	0.00425416
12.8346	12.6773	-0.0014169	0.00370646
12.835	12.6768	-0.000432387	0.00291357
12.8355	12.6763	0.000273503	0.002284
12.836	12.6758	0.000218286	0.00298191
12.8364	12.6753	0.00014873	0.00414722
12.8369	12.6749	-0.00138955	0.00358599
12.8374	12.6744	-0.000273067	0.00280336
12.8379	12.6739	0.000411278	0.00233489
12.8383	12.6734	0.000201949	0.00302272
12.8388	12.673	0.000140793	0.00424842
12.8393	12.6725	-0.00145884	0.00368391
12.8397	12.672	-0.000326019	0.00273485
12.8402	12.6716	0.000371667	0.00233489
12.8407	12.6711	0.000111651	0.00314727
12.8412	12.6706	7.99759e-05	0.00428578
12.8416	12.6701	-0.00131106	0.00367237
12.8421	12.6697	-0.000356696	0.00269502
12.8426	12.6692	0.000470098	0.0021973
12.8431	12.6688	9.65803e-05	0.00319848
12.8435	12.6683	-1.7189e-05	0.00415157
12.844	12.6678	-0.0013226	0.00365605
12.8445	12.6674	-0.000450258	0.00263816
12.8449	12.6669	0.0005836	0.00226827
12.8454	12.6664	7.35192e-06	0.00315006
12.8459	12.6659	5.61663e-05	0.00431488
12.8464	12.6654	-0.0012037	0.00346874
12.8468	12.665	-0.000339556	0.00262963
12.8473	12.6645	0.00064242	0.00240527
12.8478	12.664	-5.64985e-06	0.00311629
12.8482	12.6635	-3.11723e-06	0.00416263
12.8487	12.6631	-0.00131493	0.0036132
12.8492	12.6626	-0.000374102	0.00265422
12.8497	12.6622	0.00064242	0.00239561
12.8501	12.6617	-1.07863e-05	0.00305885
12.8506	12.6612	-0.000141962	0.00419999
12.8511	12.6608	-0.00126351	0.00356698
12.8516	12.6603	-0.000383305	0.00260563
12.852	12.6598	0.000565194	0.00235529
12.8525	12.6593	-1.05188e-05	0.00318291
12.853	12.6589	-8.03426e-05	0.00433651
12.8534	12.6584	-0.00114921	0.00356731
12.8539	12.6579	-0.000413446	0.00246723
12.8544	12.6575	0.000590003	0.00237709
12.8549	12.657	-2.33242e-05	0.00315645
12.8553	12.6565	-0.00010335	0.00425384
12.8558	12.656	-0.00113207	0.00354347
12.8563	12.6556	-0.000488068	0.00246804
12.8567	12.6551	0.000778928	0.00239953
12.8572	12.6546	-1.23201e-05	0.00322667
12.8577	12.6541	-0.00024446	0.00430398
12.8582	12.6536	-0.00103851	0.00348152
12.8586	12.6532	-0.000507811	0.0023335
12.8591	12.6527	0.000721375	0.00247641
12.8596	12.6522	-8.67453e-05	0.00329469
12.8601	12.6518	-0.000283073	0.00425088
12.8605	12.6513	-0.00107539	0.00350814
12.861	12.6508	-0.000519814	0.00251458
12.8615	12.6503	0.000825941	0.00248344
12.8619	12.6499	-4.19974e-05	0.00330935
12.8624	12.6494	-0.000359496	0.00424342
12.8629	12.6489	-0.00105618	0.00354331
12.8634	12.6485	-0.000445924	0.00241617
12.8638	12.648	0.000902168	0.00260112
12.8643	12.6475	-8.52115e-05	0.00327166
12.8648	12.647	-0.000303012	0.00419344
12.8652	12.6466	-0.000947015	0.00352462
12.8657	12.6461	-0.000569895	0.00233817
12.8662	12.6456	0.00088016	0.00251581
12.8667	12.6451	6.35311e-06	0.0032774
12.8671	12.6446	-0.000463598	0.00424342
12.8676	12.6442	-0.000882328	0.0034893
12.8681	12.6437	-0.000481933	0.00237865
12.8686	12.6432	0.000939978	0.00246706
12.869	12.6428	3.54955e-05	0.00344694
12.8695	12.6423	-0.000464597	0.0042526
12.87	12.6418	-0.000782363	0.00347684
12.8704	12.6414	-0.000535687	0.00232244
12.8709	12.6409	0.000993929	0.0026139
12.8714	12.6404	-0.000116887	0.0034507
12.8719	12.6399	-0.000454592	0.00410518
12.8723	12.6395	-0.000802035	0.00343481
12.8728	12.639	-0.00062158	0.00236152
12.8733	12.6386	0.000845613	0.00257481
12.8737	12.6381	-2.33242e-05	0.00335836
12.8742	12.6376	-0.000579633	0.00417336
12.8747	12.6371	-0.000843448	0.00352511
12.8752	12.6367	-0.000717943	0.00230751
12.8756	12.6362	0.00114784	0.00263038
12.8761	12.6357	-0.000166503	0.00345628
12.8766	12.6352	-0.000656858	0.00434913
12.8771	12.6348	-0.000723543	0.00341596
12.8775	12.6343	-0.000598038	0.00212552
12.878	12.6338	0.00103147	0.00256564
12.8785	12.6333	-6.93385e-05	0.00340539
12.8789	12.6329	-0.000711005	0.00420778
12.8794	12.6324	-0.000676263	0.00353568
12.8799	12.632	-0.000687998	0.00225646
12.8804	12.6315	0.00100566	0.00265234
12.8808	12.631	-0.000111019	0.00352946
12.8813	12.6305	-0.000636384	0.00403512
12.8818	12.6301	-0.000702337	0.00341613
12.8822	12.6296	-0.000621313	0.00215757
12.8827	12.6291	0.000969923	0.00275542
12.8832	12.6287	-0.000126357	0.00364966
12.8837	12.6282	-0.000736616	0.00402079
12.8841	12.6277	-0.000703871	0.00338843
12.8846	12.6272	-0.000645854	0.00217862
12.8851	12.6268	0.00109183	0.00278483
12.8856	12.6263	-0.000193844	0.00350643
12.886	12.6258	-0.00078263	0.00419548
12.8865	12.6253	-0.000605172	0.0033568
12.887	12.6248	-0.000651722	0.00208488
12.8874	12.6244	0.000924373	0.0026992
12.8879	12.6239	-5.34654e-05	0.00358099
12.8884	12.6234	-0.000850118	0.00408634
12.8889	12.6229	-0.000663261	0.00335197
12.8893	12.6225	-0.000628714	0.0020589
12.8898	12.622	0.000989595	0.00282048
12.8903	12.6215	-7.95401e-05	0.00359173
12.8907	12.6211	-0.000888195	0.00409708
12.8912	12.6206	-0.000620778	0.00322151
12.8917	12.6201	-0.000605707	0.00213158
12.8922	12.6196	0.000897567	0.00270232
12.8926	12.6192	-0.000110216	0.00351528
12.8931	12.6187	-0.000962353	0.00409133
12.8936	12.6182	-0.000549491	0.00328068
12.8941	12.6178	-0.000621313	0.00213593
12.8945	12.6173	0.000824408	0.00268159
12.895	12.6168	-3.86623e-05	0.00354535
12.8955	12.6163	-0.000923206	0.00393221
12.8959	12.6159	-0.000521348	0.00323569
12.8964	12.6154	-0.000568628	0.00214994
12.8969	12.6149	0.000892698	0.00281007
12.8974	12.6144	-2.76582e-05	0.00375816
12.8978	12.614	-0.00105998	0.00415189
12.8983	12.6135	-0.000447725	0.00322463
12.8988	12.613	-0.000461262	0.00215199
