# 1304     AichiSR QXAFS
# Start     : 8.9544
# End       : 9.0544
# Dir       : Backward
# Points    : 300
# ScanTime  : 1.01549
# Date      : 13.04.23 23:33
# Ring Cur. : 1[mA]
12.7557	12.6123	-1.7189e-05	0.00312687
12.7562	12.6128	-7.82738e-05	0.00431816
12.7566	12.6132	-0.00105411	0.00358894
12.7571	12.6137	-0.000637917	0.0025141
12.7576	12.6142	0.000664892	0.00253589
12.7581	12.6147	-9.51457e-05	0.00322479
12.7585	12.6151	-0.000144228	0.00428079
12.759	12.6156	-0.00118295	0.00362287
12.7595	12.6161	-0.0004822	0.00246616
12.7599	12.6166	0.00074852	0.00262775
12.7604	12.617	-4.75977e-05	0.00329034
12.7609	12.6175	-0.000266468	0.00423145
12.7614	12.618	-0.00107152	0.00352962
12.7618	12.6185	-0.000467665	0.00253777
12.7623	12.6189	0.000763858	0.0025549
12.7628	12.6194	-6.93385e-05	0.00332754
12.7632	12.6199	-0.000291741	0.00428267
12.7637	12.6203	-0.0011022	0.0035483
12.7642	12.6208	-0.000498073	0.00250803
12.7647	12.6213	0.000885831	0.00255334
12.7651	12.6218	-0.000150363	0.00327772
12.7656	12.6222	-0.000343426	0.00420466
12.7661	12.6227	-0.000870057	0.00360467
12.7666	12.6232	-0.000457927	0.0023008
12.767	12.6236	0.000791199	0.00245263
12.7675	12.6241	-3.94648e-05	0.00335664
12.768	12.6246	-0.000442856	0.00424466
12.7684	12.6251	-0.000996561	0.00344415
12.7689	12.6256	-0.000560228	0.00229146
12.7694	12.626	0.000876093	0.00251474
12.7699	12.6265	-4.07311e-05	0.00341613
12.7703	12.627	-0.000525949	0.00417025
12.7708	12.6275	-0.00094928	0.00353461
12.7713	12.6279	-0.000569163	0.00230096
12.7717	12.6284	0.00102207	0.00260767
12.7722	12.6289	-0.000238325	0.00349069
12.7727	12.6293	-0.000593704	0.00423392
12.7732	12.6298	-0.000796898	0.00355404
12.7736	12.6303	-0.000575566	0.0022141
12.7741	12.6307	0.00103128	0.00262496
12.7746	12.6312	-5.73355e-05	0.00360762
12.7751	12.6317	-0.000590102	0.00422023
12.7755	12.6322	-0.00078156	0.00354626
12.776	12.6326	-0.000615909	0.00233333
12.7765	12.6331	0.000996997	0.00271698
12.7769	12.6336	2.80939e-05	0.00350782
12.7774	12.634	-0.000694936	0.00424809
12.7779	12.6345	-0.000782898	0.00347217
12.7784	12.635	-0.000631782	0.002225
12.7788	12.6355	0.000966053	0.00271633
12.7793	12.6359	-0.000258996	0.00347808
12.7798	12.6364	-0.000753488	0.00425137
12.7802	12.6369	-0.000851652	0.00338311
12.7807	12.6374	-0.000600838	0.002161
12.7812	12.6378	0.00102154	0.00286719
12.7817	12.6383	-0.000157033	0.00355313
12.7821	12.6388	-0.000756556	0.00419017
12.7826	12.6392	-0.000707937	0.00345054
12.7831	12.6397	-0.000722009	0.00226048
12.7836	12.6402	0.000902436	0.00271773
12.784	12.6406	-0.000131957	0.00360123
12.7845	12.6411	-0.000910935	0.00423924
12.785	12.6416	-0.000559693	0.00345022
12.7854	12.642	-0.000662726	0.00211011
12.7859	12.6425	0.00109596	0.00265389
12.7864	12.643	-0.000139359	0.00356838
12.7869	12.6434	-0.000839114	0.00412338
12.7873	12.6439	-0.000702872	0.0034566
12.7878	12.6444	-0.000635849	0.00215166
12.7883	12.6448	0.000860488	0.00278827
12.7887	12.6453	-5.19316e-05	0.00364016
12.7892	12.6458	-0.000854452	0.00430103
12.7897	12.6463	-0.000509612	0.00334107
12.7902	12.6468	-0.000678064	0.00223852
12.7906	12.6472	0.000933112	0.00286128
12.7911	12.6477	-0.000111019	0.00371661
12.7916	12.6482	-0.00091814	0.00404242
12.7921	12.6487	-0.000659123	0.00334499
12.7925	12.6491	-0.000538951	0.00225286
12.793	12.6496	0.000891431	0.00271182
12.7935	12.6501	-8.16089e-05	0.00363999
12.7939	12.6506	-0.00106125	0.00400882
12.7944	12.651	-0.000552024	0.00325748
12.7949	12.6515	-0.000516212	0.00209749
12.7954	12.652	0.000843616	0.00277238
12.7958	12.6525	-9.28806e-05	0.00378586
12.7963	12.6529	-0.00100737	0.00413026
12.7968	12.6534	-0.000509612	0.0033232
12.7972	12.6539	-0.000312215	0.00224336
12.7977	12.6543	0.000861754	0.00286907
12.7982	12.6548	-5.06653e-05	0.00383568
12.7987	12.6553	-0.00109633	0.00391524
12.7991	12.6558	-0.000519279	0.003335
12.7996	12.6562	-0.000459996	0.0020553
12.8001	12.6567	0.000712707	0.00279573
12.8006	12.6572	-8.59429e-05	0.00389984
12.801	12.6577	-0.00118349	0.00401284
12.8015	12.6582	-0.000417513	0.00327133
12.802	12.6586	-0.000297412	0.00221426
12.8024	12.6591	0.000596138	0.00280024
12.8029	12.6595	-6.60034e-05	0.0039241
12.8034	12.66	-0.00117916	0.00387976
12.8039	12.6605	-0.000410379	0.00311597
12.8043	12.661	-0.000436454	0.00218017
12.8048	12.6614	0.000570331	0.00287948
12.8053	12.6619	5.77001e-05	0.00397145
12.8057	12.6624	-0.00129799	0.00386403
12.8062	12.6628	-0.000429052	0.00308606
12.8067	12.6633	-0.000137361	0.00219214
12.8072	12.6638	0.000549321	0.00291078
12.8076	12.6642	-6.29357e-05	0.00390606
12.8081	12.6647	-0.00137702	0.00391508
12.8086	12.6652	-0.000376171	0.00314587
12.8091	12.6657	-6.04031e-05	0.00204907
12.8095	12.6661	0.00046423	0.00284974
12.81	12.6666	5.49e-05	0.00393704
12.8105	12.6671	-0.00131467	0.00392475
12.8109	12.6676	-0.000448991	0.00304419
12.8114	12.668	-0.000140964	0.00218141
12.8119	12.6685	0.000488771	0.00295437
12.8124	12.669	7.41082e-05	0.00406626
12.8128	12.6694	-0.00142357	0.00380814
12.8133	12.6699	-0.000417513	0.00302862
12.8138	12.6704	-5.73355e-05	0.00220771
12.8142	12.6708	0.000402878	0.00285489
12.8147	12.6713	1.29522e-05	0.0040552
12.8152	12.6718	-0.00149105	0.00380814
12.8157	12.6722	-0.000411378	0.0029729
12.8161	12.6727	3.34267e-05	0.00217845
12.8166	12.6732	0.000384936	0.00295249
12.8171	12.6736	0.000101182	0.00424047
12.8176	12.6741	-0.00147011	0.00377094
12.818	12.6746	-0.000393774	0.00291873
12.8185	12.6751	6.61716e-05	0.00229801
12.819	12.6756	0.000337388	0.00285678
12.8194	12.676	0.000128326	0.00420015
12.8199	12.6765	-0.001546	0.00366147
12.8204	12.677	-0.000504476	0.00301993
12.8209	12.6775	7.35732e-05	0.00226236
12.8213	12.678	0.000294174	0.00291406
12.8218	12.6784	0.000133392	0.0041818
12.8223	12.6789	-0.00148285	0.00372579
12.8227	12.6794	-0.000376903	0.00288603
12.8232	12.6798	0.000211616	0.00233087
12.8237	12.6803	0.000323851	0.0029774
12.8242	12.6808	0.000198079	0.00425556
12.8246	12.6813	-0.00144784	0.00379536
12.8251	12.6817	-0.00049654	0.00290955
12.8256	12.6822	0.000134658	0.00236324
12.8261	12.6827	0.000181742	0.0028499
12.8265	12.6831	0.000231288	0.00428825
12.827	12.6836	-0.00144937	0.00376143
12.8275	12.6841	-0.000368163	0.00287309
12.8279	12.6845	0.000292444	0.00218747
12.8284	12.685	9.5849e-05	0.00294396
12.8289	12.6855	0.000165334	0.00423253
12.8294	12.686	-0.00148058	0.00380331
12.8298	12.6865	-0.000381771	0.00274296
12.8303	12.6869	0.00030978	0.0023248
12.8308	12.6874	0.000104249	0.00304886
12.8312	12.6879	7.17718e-05	0.00416697
12.8317	12.6884	-0.00151686	0.00373636
12.8322	12.6888	-0.000401176	0.0027487
12.8327	12.6893	0.000399275	0.00233661
12.8331	12.6898	7.05055e-05	0.00309261
12.8336	12.6902	0.000103982	0.00424638
12.8341	12.6907	-0.00140796	0.00359329
12.8346	12.6912	-0.000432655	0.00274795
12.835	12.6917	0.000353529	0.00227933
12.8355	12.6921	0.00012879	0.00293913
12.836	12.6926	0.000133392	0.00417508
12.8364	12.693	-0.00147211	0.00362131
12.8369	12.6935	-0.000330353	0.00273985
12.8374	12.694	0.000488771	0.00226548
12.8379	12.6944	0.000130057	0.00309557
12.8383	12.6949	0.000108048	0.0042453
12.8388	12.6954	-0.00142943	0.00373915
12.8393	12.6959	-0.000365631	0.00266388
12.8397	12.6963	0.000514043	0.00240699
12.8402	12.6968	4.44308e-05	0.00314399
12.8407	12.6973	3.54955e-05	0.00421089
12.8412	12.6978	-0.00134734	0.00362475
12.8416	12.6982	-0.000456393	0.00268643
12.8421	12.6987	0.000593338	0.00236496
12.8426	12.6992	1.30233e-05	0.00316407
12.8431	12.6996	5.81811e-06	0.00431971
12.8435	12.7001	-0.00127912	0.00368219
12.844	12.7006	-0.000561494	0.0026634
12.8445	12.701	0.000572863	0.00252065
12.8449	12.7015	-2.71232e-05	0.00328535
12.8454	12.702	-0.000137361	0.0042685
12.8459	12.7025	-0.00120063	0.00356231
12.8464	12.7029	-0.000444123	0.00247099
12.8468	12.7034	0.000634215	0.00252049
12.8473	12.7039	1.5556e-05	0.00320439
12.8478	12.7043	-0.000174904	0.00432422
12.8482	12.7048	-0.00107892	0.00361353
12.8487	12.7053	-0.000464062	0.00250025
12.8492	12.7058	0.000714776	0.00247443
12.8497	12.7063	-7.03373e-05	0.00324331
12.8501	12.7068	-0.000215318	0.00432889
12.8506	12.7072	-0.0012139	0.00363999
12.8511	12.7077	-0.000446726	0.00250524
12.8516	12.7082	0.000797602	0.00240871
12.852	12.7087	-4.85965e-05	0.00330559
12.8525	12.7091	-0.000379435	0.00427784
12.853	12.7096	-0.000997363	0.00355281
12.8534	12.71	-0.000544088	0.00236217
12.8539	12.7105	0.000746183	0.00257154
12.8544	12.711	-0.000111554	0.00338547
12.8549	12.7115	-0.000383769	0.00422785
12.8553	12.712	-0.00090867	0.00364622
12.8558	12.7124	-0.000508079	0.0024501
12.8563	12.7129	0.000909035	0.00259554
12.8567	12.7133	-2.15229e-05	0.00334885
12.8572	12.7138	-0.000524951	0.00424514
12.8577	12.7143	-0.000858518	0.00350733
12.8582	12.7148	-0.000498073	0.00241494
12.8586	12.7152	0.000937446	0.00255269
12.8591	12.7157	-2.89245e-05	0.00339465
12.8596	12.7162	-0.000447725	0.0041782
12.8601	12.7167	-0.000901732	0.00351904
12.8605	12.7172	-0.000638916	0.0023371
12.861	12.7176	0.000961987	0.00268224
12.8615	12.7181	-9.16143e-05	0.00331927
12.8619	12.7186	-0.000482735	0.00426522
12.8624	12.719	-0.000848049	0.00357337
12.8629	12.7195	-0.000624381	0.00225426
12.8634	12.72	0.00104581	0.00269035
12.8638	12.7204	-0.000136826	0.00354191
12.8643	12.7209	-0.000610309	0.00430226
12.8648	12.7214	-0.000835511	0.00346267
12.8652	12.7219	-0.000594436	0.00225147
12.8657	12.7223	0.00108549	0.00276615
12.8662	12.7228	-3.09933e-05	0.00353912
12.8667	12.7232	-0.000640254	0.00428578
12.8671	12.7237	-0.000775229	0.00355404
12.8676	12.7242	-0.000660389	0.00220615
12.8681	12.7246	0.000912905	0.00273067
12.8686	12.7251	-0.000116887	0.00360123
12.869	12.7256	-0.000634582	0.00411436
12.8695	12.7261	-0.000822509	0.00354502
12.87	12.7266	-0.000671661	0.00219263
12.8704	12.727	0.000924908	0.00266152
12.8709	12.7275	-0.000127891	0.00354379
12.8714	12.728	-0.000645051	0.0041986
12.8719	12.7285	-0.000704139	0.00348495
12.8723	12.7289	-0.000568896	0.00222688
12.8728	12.7294	0.000922839	0.00275091
12.8733	12.7298	-9.48782e-05	0.00363049
12.8737	12.7303	-0.00084705	0.00414427
12.8742	12.7308	-0.000545621	0.00346874
12.8747	12.7313	-0.000566363	0.00221303
12.8752	12.7318	0.000878893	0.00271215
12.8756	12.7322	-4.60638e-05	0.00362131
12.8761	12.7327	-0.000791298	0.00424842
12.8766	12.7332	-0.000643054	0.00335541
12.8771	12.7336	-0.000694936	0.00218452
12.8775	12.7341	0.000948914	0.00277254
12.878	12.7346	-0.000122219	0.00369432
12.8785	12.7351	-0.000853185	0.00411732
12.8789	12.7355	-0.000578099	0.00349258
12.8794	12.736	-0.000550223	0.00223155
12.8799	12.7365	0.00087736	0.00282891
12.8804	12.737	-9.7482e-05	0.00371349
12.8808	12.7375	-0.000935476	0.00412043
12.8813	12.7379	-0.000498073	0.00332615
12.8818	12.7384	-0.00059597	0.00221378
12.8822	12.7389	0.000958116	0.00284695
12.8827	12.7393	-7.71866e-06	0.00367253
12.8832	12.7398	-0.000995295	0.00406749
12.8837	12.7403	-0.000603639	0.00320578
12.8841	12.7408	-0.000410914	0.00217051
12.8846	12.7412	0.000806804	0.00277565
12.8851	12.7417	8.17772e-05	0.00373464
12.8856	12.7422	-0.00108253	0.00403963
12.886	12.7426	-0.000459461	0.00322339
12.8865	12.7431	-0.000508275	0.0021624
12.887	12.7436	0.000692768	0.00279745
12.8874	12.744	-4.29962e-05	0.00382199
12.8879	12.7445	-0.00101784	0.00403996
12.8884	12.745	-0.000458462	0.00330263
12.8889	12.7455	-0.000423381	0.00210184
12.8893	12.746	0.000742385	0.00284539
12.8898	12.7464	-5.64985e-06	0.00384878
12.8903	12.7469	-0.00110733	0.00395867
12.8907	12.7474	-0.000459461	0.00332394
12.8912	12.7479	-0.000404244	0.00224958
12.8917	12.7483	0.00055419	0.00288324
12.8922	12.7488	-7.21386e-05	0.00382199
12.8926	12.7493	-0.00122264	0.00405102
12.8931	12.7497	-0.000438986	0.00312875
12.8936	12.7502	-0.000351363	0.00218903
12.8941	12.7506	0.0006953	0.00284974
12.8945	12.7511	-3.07258e-05	0.00391278
12.895	12.7516	-0.00127678	0.00396334
12.8955	12.7521	-0.000427786	0.00309729
12.8959	12.7525	-0.000242659	0.00225925
12.8964	12.753	0.00064242	0.002844
12.8969	12.7535	-2.99945e-05	0.003959
12.8974	12.7539	-0.00135654	0.00398997
12.8978	12.7544	-0.000419582	0.00307458
12.8983	12.7549	-0.000204314	0.00208643
12.8988	12.7553	0.000512313	0.00280384
