# 1304     AichiSR QXAFS
# Start     : 8.9544
# End       : 9.0544
# Dir       : Forward
# Points    : 300
# ScanTime  : 1.01549
# Date      : 13.04.23 23:08
# Ring Cur. : 0.9[mA]
12.7557	12.7561	-0.00129852	0.00372202
12.7562	12.7557	-0.00038557	0.00254196
12.7566	12.7552	0.00062808	0.00241027
12.7571	12.7547	4.59646e-05	0.00321765
12.7576	12.7542	-0.000120222	0.00432733
12.7581	12.7538	-0.00119169	0.00360091
12.7585	12.7533	-0.000352629	0.00269985
12.759	12.7528	0.000680497	0.00252516
12.7595	12.7524	0.000130592	0.00303796
12.7599	12.7519	-8.4409e-05	0.00424638
12.7604	12.7515	-0.00105078	0.00357944
12.7609	12.751	-0.00034389	0.00255474
12.7614	12.7505	0.000697637	0.00257981
12.7618	12.75	-6.80722e-05	0.00318947
12.7623	12.7496	-0.000192043	0.00432127
12.7628	12.7491	-0.00107432	0.00354412
12.7632	12.7486	-0.000421383	0.00244141
12.7637	12.7482	0.000780997	0.0024537
12.7642	12.7477	-9.78746e-06	0.00330854
12.7647	12.7472	-0.000270535	0.00426989
12.7651	12.7468	-0.000999967	0.00356993
12.7656	12.7463	-0.000408114	0.00248919
12.7661	12.7458	0.000830347	0.00260858
12.7666	12.7453	-4.96665e-05	0.00341334
12.767	12.7448	-0.000253663	0.0041841
12.7675	12.7444	-0.000959018	0.00342735
12.768	12.7439	-0.000481201	0.00240683
12.7684	12.7434	0.000929242	0.00258727
12.7689	12.743	6.00364e-05	0.00328411
12.7694	12.7425	-0.000293809	0.00436626
12.7699	12.742	-0.000926808	0.0035964
12.7703	12.7416	-0.000550758	0.00240839
12.7708	12.7411	0.000797067	0.00260907
12.7713	12.7406	2.57576e-05	0.00331648
12.7717	12.7401	-0.000293809	0.00418163
12.7722	12.7397	-0.000952348	0.0034929
12.7727	12.7392	-0.000499607	0.00230268
12.7732	12.7387	0.00102307	0.00255801
12.7736	12.7383	-5.55342e-05	0.00347217
12.7741	12.7378	-0.000452327	0.00416042
12.7746	12.7373	-0.000860587	0.0034966
12.7751	12.7368	-0.000524416	0.00222033
12.7755	12.7364	0.000940781	0.00255334
12.776	12.7359	-4.91315e-05	0.00341629
12.7765	12.7354	-0.000535687	0.00416107
12.7769	12.7349	-0.000762958	0.00344087
12.7774	12.7344	-0.00050601	0.00228432
12.7779	12.734	0.00106142	0.00262791
12.7784	12.7335	-9.48782e-05	0.00349601
12.7788	12.733	-0.000627181	0.004219
12.7793	12.7325	-0.000719477	0.00349832
12.7798	12.7321	-0.000431388	0.0022155
12.7802	12.7316	0.00103227	0.0026634
12.7807	12.7311	3.553e-06	0.00356076
12.7812	12.7306	-0.000591636	0.00420901
12.7817	12.7302	-0.000716142	0.00346095
12.7821	12.7297	-0.000642519	0.00221829
12.7826	12.7292	0.00108676	0.00261186
12.7831	12.7288	-2.4858e-05	0.00362164
12.7836	12.7283	-0.000610041	0.00413772
12.784	12.7278	-0.00065379	0.00345161
12.7845	12.7274	-0.000640182	0.00218296
12.785	12.7269	0.00102207	0.00272707
12.7854	12.7264	-5.27341e-05	0.00349118
12.7859	12.7259	-0.00065272	0.00410019
12.7864	12.7255	-0.000639451	0.00340507
12.7869	12.725	-0.000558427	0.00214248
12.7873	12.7245	0.000966855	0.00264488
12.7878	12.724	2.7505e-06	0.00368391
12.7883	12.7236	-0.000802035	0.00401209
12.7887	12.7231	-0.000543089	0.00334934
12.7892	12.7226	-0.000610309	0.00213658
12.7897	12.7222	0.00087736	0.00260563
12.7902	12.7217	-9.79458e-05	0.00359844
12.7906	12.7212	-0.000930607	0.00401488
12.7911	12.7208	-0.000530818	0.00329313
12.7916	12.7203	-0.000544623	0.00212659
12.7921	12.7198	0.000886562	0.00277066
12.7925	12.7194	-2.66593e-05	0.00349741
12.793	12.7189	-0.000875658	0.00406938
12.7935	12.7184	-0.000491671	0.00318947
12.7939	12.718	-0.000619512	0.0020612
12.7944	12.7175	0.000903167	0.00273018
12.7949	12.717	-5.48029e-05	0.00358304
12.7954	12.7165	-0.00093248	0.00400801
12.7958	12.7161	-0.000533886	0.00325265
12.7963	12.7156	-0.000468931	0.00207242
12.7968	12.7151	0.0007958	0.00277861
12.7972	12.7146	-6.09381e-05	0.00364343
12.7977	12.7141	-0.000910204	0.00403373
12.7982	12.7137	-0.000484002	0.00323274
12.7987	12.7132	-0.000540021	0.00211167
12.7991	12.7127	0.000859685	0.00282392
12.7996	12.7123	2.483e-06	0.00369744
12.8001	12.7118	-0.00098536	0.00408494
12.8006	12.7113	-0.000368698	0.00324208
12.801	12.7109	-0.000439521	0.0021347
12.8015	12.7104	0.000826209	0.00271773
12.802	12.7099	-3.65223e-06	0.00376283
12.8024	12.7094	-0.00117609	0.00410363
12.8029	12.709	-0.000342891	0.00319193
12.8034	12.7085	-0.000398643	0.00217813
12.8039	12.708	0.000657223	0.00300838
12.8043	12.7076	0.00013266	0.00383337
12.8048	12.7071	-0.0011132	0.00406921
12.8053	12.7066	-0.000365898	0.00313809
12.8057	12.7061	-0.000265933	0.00216428
12.8062	12.7057	0.000616345	0.00282687
12.8067	12.7052	9.0445e-05	0.0038891
12.8072	12.7047	-0.00113107	0.00389967
12.8076	12.7042	-0.000356696	0.003021
12.8081	12.7037	-0.000234722	0.00212224
12.8086	12.7033	0.000640083	0.00278279
12.8091	12.7028	7.76396e-05	0.00378913
12.8095	12.7023	-0.00125964	0.00396522
12.81	12.7019	-0.000362831	0.00313481
12.8105	12.7014	-0.000220187	0.00215805
12.8109	12.7009	0.000648287	0.00276132
12.8114	12.7004	0.000107049	0.00400817
12.8119	12.7	-0.00118222	0.00388738
12.8124	12.6995	-0.000438255	0.00308188
12.8128	12.699	-5.83343e-05	0.0021923
12.8133	12.6986	0.000573131	0.00279729
12.8138	12.6981	5.92339e-05	0.00408585
12.8142	12.6976	-0.00130366	0.00394155
12.8147	12.6972	-0.000296075	0.00297338
12.8152	12.6967	-8.90105e-05	0.00222967
12.8157	12.6962	0.000507712	0.00284711
12.8161	12.6957	0.000167403	0.0039386
12.8166	12.6953	-0.00135221	0.00386763
12.8171	12.6948	-0.000336221	0.00291373
12.8176	12.6943	-0.00013836	0.00211929
12.818	12.6938	0.000474967	0.0028222
12.8185	12.6934	0.000261233	0.00401177
12.819	12.6929	-0.0014169	0.00389549
12.8194	12.6924	-0.000301478	0.00296806
12.8199	12.692	4.52333e-05	0.00223385
12.8204	12.6915	0.00031645	0.002922
12.8209	12.691	0.000147196	0.00417615
12.8213	12.6906	-0.00145317	0.00367908
12.8218	12.6901	-0.000293274	0.00294069
12.8223	12.6896	4.92997e-05	0.00218591
12.8227	12.6892	0.000308781	0.00287637
12.8232	12.6887	0.000214416	0.0041863
12.8237	12.6882	-0.00144604	0.00383616
12.8242	12.6878	-0.000212981	0.00288866
12.8246	12.6873	0.000196278	0.00226376
12.8251	12.6868	0.000317984	0.00287792
12.8256	12.6863	0.000228488	0.00415157
12.8261	12.6858	-0.00146498	0.00368391
12.8265	12.6854	-0.00028614	0.00301526
12.827	12.6849	0.000239759	0.00210684
12.8275	12.6844	0.000249694	0.00299002
12.8279	12.6839	0.000239224	0.00422941
12.8284	12.6835	-0.00147291	0.00372267
12.8289	12.683	-0.000310146	0.0028127
12.8294	12.6825	0.000264033	0.00223246
12.8298	12.6821	0.000283437	0.00298567
12.8303	12.6816	0.000292176	0.00424203
12.8308	12.6811	-0.00139442	0.00354068
12.8312	12.6806	-0.000228319	0.00281785
12.8317	12.6802	0.000262767	0.00214076
12.8322	12.6797	0.000273236	0.00291873
12.8327	12.6792	0.000221354	0.00414813
12.8331	12.6788	-0.00135014	0.0036109
12.8336	12.6783	-0.000266201	0.00280942
12.8341	12.6778	0.000281904	0.00216133
12.8346	12.6773	0.000194013	0.00301042
12.835	12.6769	0.000210082	0.00425072
12.8355	12.6764	-0.00144964	0.00356822
12.836	12.6759	-0.000248063	0.00274559
12.8364	12.6754	0.000356329	0.00228883
12.8369	12.6749	9.63128e-05	0.00298036
12.8374	12.6745	0.000186344	0.00419983
12.8379	12.674	-0.00128652	0.00365884
12.8383	12.6735	-0.000250328	0.00270199
12.8388	12.673	0.000394139	0.00220927
12.8393	12.6726	6.95067e-05	0.00305262
12.8397	12.6721	0.000137993	0.00429276
12.8402	12.6717	-0.00124764	0.00366941
12.8407	12.6712	-0.000339824	0.00265266
12.8412	12.6707	0.000483902	0.00231047
12.8416	12.6702	2.483e-06	0.00302878
12.8421	12.6698	7.87096e-05	0.00412199
12.8426	12.6693	-0.00125251	0.00345398
12.8431	12.6688	-0.000277669	0.00258743
12.8435	12.6684	0.00055806	0.00233554
12.844	12.6679	0.000173806	0.00308794
12.8445	12.6674	3.34267e-05	0.00415452
12.8449	12.667	-0.00127145	0.00353633
12.8454	12.6665	-0.000360762	0.00267618
12.8459	12.666	0.000602273	0.00225753
12.8464	12.6655	5.67013e-05	0.00308188
12.8468	12.665	4.77659e-05	0.00408134
12.8473	12.6646	-0.00123257	0.00350986
12.8478	12.6641	-0.000421115	0.00261513
12.8482	12.6636	0.000690235	0.00242535
12.8487	12.6632	8.05109e-05	0.00327724
12.8492	12.6627	5.28312e-05	0.00425744
12.8497	12.6622	-0.00116635	0.00360902
12.8501	12.6618	-0.000356161	0.0025499
12.8506	12.6613	0.000637283	0.00238954
12.8511	12.6608	7.63733e-05	0.0031834
12.8516	12.6603	-0.000162901	0.0042431
12.852	12.6599	-0.00105872	0.00355158
12.8525	12.6594	-0.000477599	0.00247083
12.853	12.659	0.000844615	0.00238069
12.8534	12.6585	-6.16694e-05	0.00316128
12.8539	12.658	-6.83397e-05	0.00424605
12.8544	12.6575	-0.000974356	0.0037049
12.8549	12.6571	-0.000460727	0.00236651
12.8553	12.6566	0.00076079	0.00243314
12.8558	12.6561	1.19533e-05	0.00330902
12.8563	12.6556	-0.000307881	0.0041346
12.8567	12.6551	-0.00094928	0.0034988
12.8572	12.6547	-0.000431317	0.00241896
12.8577	12.6542	0.000830543	0.00259956
12.8582	12.6537	-4.81327e-05	0.00329829
12.8586	12.6533	-0.000306811	0.00422909
12.8591	12.6528	-0.000932676	0.00355968
12.8596	12.6523	-0.000425717	0.00244887
12.8601	12.6519	0.000906502	0.00263446
12.8605	12.6514	-5.83343e-05	0.00333672
12.861	12.6509	-0.000347493	0.00420606
12.8615	12.6504	-0.000930143	0.00354862
12.8619	12.6499	-0.000434385	0.002279
12.8624	12.6495	0.00097679	0.00266168
12.8629	12.649	-0.000101548	0.00340007
12.8634	12.6485	-0.000390974	0.00422785
12.8638	12.6481	-0.000925007	0.00357944
12.8643	12.6476	-0.000545889	0.00231825
12.8648	12.6471	0.00100006	0.00252483
12.8652	12.6466	-9.76783e-05	0.0034362
12.8657	12.6461	-0.00049654	0.00431832
12.8662	12.6457	-0.000854184	0.00351716
12.8667	12.6452	-0.000513679	0.00222827
12.8671	12.6447	0.000958384	0.00260456
12.8676	12.6442	2.78264e-05	0.00327305
12.8681	12.6438	-0.000495737	0.00422785
12.8686	12.6433	-0.000673997	0.00343808
12.869	12.6428	-0.000591903	0.00213486
12.8695	12.6424	0.000997532	0.00258244
12.87	12.6419	1.5556e-05	0.00345849
12.8704	12.6415	-0.000651722	0.00423145
12.8709	12.641	-0.00076649	0.00337441
12.8714	12.6405	-0.00056376	0.0022468
12.8719	12.64	0.0010256	0.00265594
12.8723	12.6396	-5.96006e-05	0.00340163
12.8728	12.6391	-0.000627181	0.00419565
12.8733	12.6386	-0.000728679	0.00345349
12.8737	12.6382	-0.000611843	0.00210667
12.8742	12.6377	0.00102514	0.0025608
12.8747	12.6372	-4.07311e-05	0.00344259
12.8752	12.6367	-0.000681666	0.00404012
12.8756	12.6363	-0.000648921	0.00333533
12.8761	12.6358	-0.000590102	0.00223385
12.8766	12.6353	0.00092464	0.00265217
12.8771	12.6348	-0.000226857	0.00355437
12.8775	12.6344	-0.000723811	0.00417664
12.878	12.6339	-0.000565561	0.00351856
12.8785	12.6334	-0.000642519	0.00207505
12.8789	12.633	0.00103481	0.00279713
12.8794	12.6325	-0.000191241	0.00350036
12.8799	12.632	-0.000770092	0.00414722
12.8804	12.6316	-0.000602105	0.00338048
12.8808	12.6311	-0.000560692	0.00216911
12.8813	12.6306	0.000913903	0.00265701
12.8818	12.6301	9.75791e-05	0.00361369
12.8822	12.6297	-0.000785163	0.0041237
12.8827	12.6292	-0.000536151	0.00340179
12.8832	12.6287	-0.000544355	0.00208815
12.8837	12.6283	0.000913903	0.00269765
12.8841	12.6278	-0.000125358	0.00366367
12.8846	12.6273	-0.000780561	0.00415763
12.8851	12.6268	-0.000530283	0.00326543
12.8856	12.6264	-0.000513946	0.00211258
12.886	12.6259	0.000900367	0.00274935
12.8865	12.6254	-3.40609e-05	0.00365138
12.887	12.6249	-0.000929608	0.00412698
12.8874	12.6244	-0.000642251	0.00331648
12.8879	12.624	-0.000553558	0.00220009
12.8884	12.6235	0.000804468	0.00277082
12.8889	12.623	5.79676e-05	0.003758
12.8893	12.6225	-0.00109273	0.00410191
12.8898	12.6221	-0.00041218	0.00317218
12.8903	12.6216	-0.000345228	0.00206201
12.8907	12.6211	0.000900831	0.0027042
12.8912	12.6207	-6.75372e-05	0.00377733
12.8917	12.6202	-0.00104238	0.00399357
12.8922	12.6197	-0.000407846	0.00322028
12.8926	12.6192	-0.000326554	0.002142
12.8931	12.6188	0.000754655	0.00263537
12.8936	12.6183	0.000122923	0.00385329
12.8941	12.6178	-0.0011234	0.00389033
12.8945	12.6174	-0.000390707	0.00311409
12.895	12.6169	-0.000321418	0.00202088
12.8955	12.6164	0.000780195	0.00282343
12.8959	12.6159	-2.66593e-05	0.00373759
12.8964	12.6155	-0.00124204	0.00395884
12.8969	12.615	-0.000418315	0.00305541
12.8974	12.6145	-0.000297876	0.0022105
12.8978	12.614	0.000717309	0.0028317
12.8983	12.6136	0.000114986	0.00380191
12.8988	12.6131	-0.00127859	0.00393516
