# 1304     AichiSR QXAFS
# Start     : 8.9544
# End       : 9.0544
# Dir       : Backward
# Points    : 300
# ScanTime  : 1.01549
# Date      : 13.04.23 23:06
# Ring Cur. : 0.9[mA]
12.7557	12.6122	-0.000345156	0.0028703
12.7562	12.6127	0.000310315	0.0021624
12.7566	12.6131	0.000163069	0.0029715
12.7571	12.6136	0.000178675	0.00421835
12.7576	12.6141	-0.00128472	0.00366662
12.7581	12.6146	-0.00025006	0.00287374
12.7585	12.615	0.000285506	0.00229039
12.759	12.6155	0.000188074	0.00311441
12.7595	12.616	8.43098e-05	0.00416918
12.7599	12.6165	-0.00126605	0.00361165
12.7604	12.6169	-0.00039991	0.00267258
12.7609	12.6174	0.000453957	0.00222623
12.7614	12.6179	5.67013e-05	0.00294487
12.7618	12.6184	0.000101182	0.00421229
12.7623	12.6188	-0.00128092	0.00357616
12.7628	12.6193	-0.000401443	0.00268691
12.7632	12.6198	0.00048417	0.00229785
12.7637	12.6202	3.1429e-05	0.00306958
12.7642	12.6207	2.75589e-05	0.00422147
12.7647	12.6212	-0.00128345	0.0035891
12.7651	12.6217	-0.000367165	0.00261889
12.7656	12.6221	0.000442222	0.00230391
12.7661	12.6226	0.000147196	0.00312842
12.7666	12.6231	0.000134194	0.00419065
12.767	12.6235	-0.00127245	0.00357337
12.7675	12.624	-0.000341892	0.00252139
12.768	12.6245	0.000469831	0.00235857
12.7684	12.625	7.91734e-05	0.00313932
12.7689	12.6254	1.37547e-05	0.00418254
12.7694	12.6259	-0.00121877	0.00362255
12.7699	12.6264	-0.000313749	0.00261341
12.7703	12.6269	0.000624014	0.00241773
12.7708	12.6274	-9.08118e-05	0.00322012
12.7713	12.6278	1.80886e-05	0.00412166
12.7717	12.6283	-0.0011142	0.00361401
12.7722	12.6288	-0.000391973	0.00263849
12.7727	12.6292	0.000648287	0.00221893
12.7732	12.6297	1.58235e-05	0.00317309
12.7736	12.6302	-2.84973e-06	0.004214
12.7741	12.6306	-0.00118349	0.00361664
12.7746	12.6311	-0.000387639	0.00260579
12.7751	12.6316	0.000703504	0.00238085
12.7755	12.6321	5.79676e-05	0.00321282
12.776	12.6325	-0.000152432	0.00422318
12.7765	12.633	-0.00108839	0.00362598
12.7769	12.6334	-0.000409112	0.00253417
12.7774	12.6339	0.000701168	0.00237618
12.7779	12.6344	-2.12554e-05	0.0031703
12.7784	12.6349	-0.000235989	0.00416762
12.7788	12.6354	-0.00107992	0.00351839
12.7793	12.6358	-0.000510879	0.00232464
12.7798	12.6363	0.000767924	0.00238987
12.7802	12.6368	-0.000128158	0.00325716
12.7807	12.6373	-0.000210449	0.00413944
12.7812	12.6377	-0.00094648	0.0034725
12.7817	12.6382	-0.000368698	0.00239094
12.7821	12.6387	0.000754387	0.00255302
12.7826	12.6391	-6.71985e-06	0.00320782
12.7831	12.6396	-0.000274869	0.00425105
12.7836	12.64	-0.0010275	0.00353477
12.784	12.6405	-0.000345691	0.00246927
12.7845	12.641	0.000762057	0.00256096
12.785	12.6415	-7.54737e-05	0.00328223
12.7854	12.6419	-0.00034109	0.00421524
12.7859	12.6424	-0.0008992	0.00352602
12.7864	12.6429	-0.000509345	0.00239421
12.7869	12.6433	0.00094458	0.00250132
12.7873	12.6438	-5.48029e-05	0.00333828
12.7878	12.6443	-0.000255732	0.00423564
12.7883	12.6447	-0.000922938	0.00353257
12.7887	12.6452	-0.000421115	0.00233554
12.7892	12.6457	0.000935109	0.0026044
12.7897	12.6462	3.24278e-05	0.0033713
12.7902	12.6467	-0.000365898	0.00420762
12.7906	12.6471	-0.000944411	0.00350299
12.7911	12.6476	-0.000578366	0.00231063
12.7916	12.6481	0.000914171	0.00264471
12.7921	12.6486	-1.7724e-05	0.00338998
12.7925	12.649	-0.000402175	0.00425588
12.793	12.6495	-0.000786964	0.00355608
12.7935	12.65	-0.000635117	0.00224835
12.7939	12.6504	0.00102641	0.00260923
12.7944	12.6509	-0.000120222	0.00342702
12.7949	12.6514	-0.000513679	0.00421057
12.7954	12.6519	-0.000842181	0.00352011
12.7958	12.6523	-0.000619244	0.00224041
12.7963	12.6528	0.000993394	0.00262775
12.7968	12.6533	-0.000105151	0.00351093
12.7972	12.6537	-0.000517014	0.00418614
12.7977	12.6542	-0.000780561	0.00345832
12.7982	12.6547	-0.00067093	0.00227138
12.7987	12.6552	0.00101594	0.00265749
12.7991	12.6557	-0.000149364	0.00356682
12.7996	12.6561	-0.000616712	0.0041469
12.8001	12.6566	-0.00076369	0.00356698
12.8006	12.6571	-0.00060264	0.00224024
12.801	12.6576	0.00098066	0.00272583
12.8015	12.6581	-0.000140161	0.00359034
12.802	12.6585	-0.000557892	0.00421991
12.8024	12.659	-0.000651722	0.00348307
12.8029	12.6594	-0.000609506	0.0021442
12.8034	12.6599	0.00103334	0.00272288
12.8039	12.6604	-0.000109217	0.00359329
12.8043	12.6609	-0.000725344	0.00421835
12.8048	12.6613	-0.000549688	0.00342047
12.8053	12.6618	-0.000592171	0.00217067
12.8057	12.6623	0.000989863	0.00277238
12.8062	12.6627	-9.25246e-06	0.00357026
12.8067	12.6632	-0.000831712	0.00419188
12.8072	12.6637	-0.000619048	0.00336614
12.8076	12.6641	-0.000605172	0.0021923
12.8081	12.6646	0.00102307	0.00271682
12.8086	12.6651	-0.000138627	0.00362115
12.8091	12.6656	-0.000746818	0.00410084
12.8095	12.666	-0.00061771	0.00338654
12.81	12.6665	-0.000671126	0.00219509
12.8105	12.667	0.00099293	0.00259415
12.8109	12.6675	-0.000147028	0.003694
12.8114	12.6679	-0.00095035	0.0040289
12.8119	12.6684	-0.000605172	0.00337876
12.8124	12.6689	-0.000642519	0.00218312
12.8128	12.6693	0.000922571	0.00264815
12.8133	12.6698	1.70898e-05	0.00360918
12.8138	12.6703	-0.000862388	0.00407888
12.8142	12.6707	-0.00054769	0.00325904
12.8147	12.6712	-0.000510344	0.00207554
12.8152	12.6717	0.000911638	0.00282204
12.8157	12.6721	-5.12003e-05	0.00366802
12.8161	12.6726	-0.000910471	0.00405724
12.8166	12.6731	-0.000548154	0.00331648
12.8171	12.6735	-0.000581701	0.00219902
12.8176	12.674	0.000863555	0.00266044
12.818	12.6745	3.31592e-05	0.0037675
12.8185	12.675	-0.000980759	0.00405536
12.819	12.6754	-0.00056763	0.00334016
12.8194	12.6759	-0.000439789	0.00210979
12.8199	12.6764	0.00091237	0.00279058
12.8204	12.6769	-6.16694e-05	0.0037457
12.8209	12.6774	-0.00101297	0.00413149
12.8213	12.6779	-0.000479935	0.00327584
12.8218	12.6783	-0.000433653	0.00214839
12.8223	12.6788	0.000806537	0.00268101
12.8227	12.6793	-1.56552e-05	0.00386591
12.8232	12.6797	-0.00104771	0.00396941
12.8237	12.6802	-0.000389904	0.00329034
12.8242	12.6807	-0.000462261	0.00223434
12.8246	12.6811	0.000727778	0.00281286
12.8251	12.6816	1.68223e-05	0.00375644
12.8256	12.6821	-0.00108866	0.00410937
12.8261	12.6826	-0.000445656	0.00321872
12.8265	12.683	-0.000373835	0.00235095
12.827	12.6835	0.000569528	0.0027101
12.8275	12.684	-1.61902e-05	0.00388738
12.8279	12.6844	-0.00106485	0.00406282
12.8284	12.6849	-0.000415248	0.00314866
12.8289	12.6854	-0.000298411	0.00207275
12.8294	12.6859	0.00084515	0.00287358
12.8298	12.6864	-7.98616e-06	0.00391229
12.8303	12.6868	-0.00126118	0.00399169
12.8308	12.6873	-0.000342624	0.00315833
12.8312	12.6878	-0.000215318	0.00212519
12.8317	12.6883	0.000656955	0.00289677
12.8322	12.6887	2.11562e-05	0.00383616
12.8327	12.6892	-0.00122697	0.00387025
12.8331	12.6897	-0.000375636	0.00319881
12.8336	12.6901	-0.000268198	0.00217518
12.8341	12.6906	0.000614008	0.00282252
12.8346	12.6911	0.000101182	0.00392893
12.835	12.6915	-0.00131946	0.00380814
12.8355	12.692	-0.000516747	0.00306443
12.836	12.6925	-0.00023219	0.00217158
12.8364	12.6929	0.000689433	0.00285506
12.8369	12.6934	8.05109e-05	0.00398015
12.8374	12.6939	-0.00133767	0.00375258
12.8379	12.6943	-0.000440787	0.0030509
12.8383	12.6948	-0.000214319	0.00223139
12.8388	12.6953	0.000456294	0.00287809
12.8393	12.6958	7.23068e-05	0.00405708
12.8397	12.6962	-0.0013274	0.0038687
12.8402	12.6967	-0.000351827	0.00318431
12.8407	12.6972	5.67013e-05	0.00216895
12.8412	12.6977	0.00054752	0.00295904
12.8416	12.6981	0.00016487	0.0040166
12.8421	12.6986	-0.00140029	0.003876
12.8426	12.6991	-0.00033549	0.00304575
12.8431	12.6995	5.29023e-05	0.00216772
12.8435	12.7	0.000506642	0.00283047
12.844	12.7005	0.000144396	0.00414051
12.8445	12.7009	-0.00139362	0.00382854
12.8449	12.7014	-0.000435187	0.00299362
12.8454	12.7019	1.78211e-05	0.00217985
12.8459	12.7024	0.000411813	0.00280819
12.8464	12.7028	0.000115253	0.00411002
12.8468	12.7033	-0.00138082	0.00383305
12.8473	12.7038	-0.000362563	0.0029402
12.8478	12.7042	0.000146393	0.00227154
12.8482	12.7047	0.000509977	0.00292479
12.8487	12.7052	0.000120319	0.00414845
12.8492	12.7057	-0.00155521	0.00369809
12.8497	12.7062	-0.000393774	0.00300763
12.8501	12.7066	0.00011092	0.00219042
12.8506	12.7071	0.000269366	0.00287604
12.8511	12.7076	0.000157933	0.004155
12.8516	12.7081	-0.00148085	0.00387927
12.852	12.7086	-0.000269001	0.00291594
12.8525	12.709	0.000240027	0.00224368
12.853	12.7095	0.000182474	0.00291513
12.8534	12.7099	0.000184542	0.00410175
12.8539	12.7104	-0.0015294	0.0036014
12.8544	12.7109	-0.000362563	0.00282204
12.8549	12.7114	0.000233624	0.00216428
12.8553	12.7119	0.000369598	0.00284711
12.8558	12.7123	0.000183009	0.00419065
12.8563	12.7128	-0.00143963	0.00379847
12.8567	12.7132	-0.000368698	0.0028848
12.8572	12.7137	0.000324921	0.00216691
12.8577	12.7142	0.00029651	0.00297896
12.8582	12.7147	0.000207282	0.00421679
12.8586	12.7151	-0.00136835	0.00371752
12.8591	12.7156	-0.000307881	0.00287374
12.8596	12.7161	0.000322318	0.00236324
12.8601	12.7166	0.000201147	0.00300076
12.8605	12.7171	0.000170738	0.00415968
12.861	12.7175	-0.00146958	0.00367876
12.8615	12.718	-0.000298411	0.00279761
12.8619	12.7185	0.00038754	0.00222811
12.8624	12.7189	0.000195011	0.00309573
12.8629	12.7194	8.79124e-05	0.00418958
12.8634	12.7199	-0.0013338	0.00369792
12.8638	12.7203	-0.00039711	0.00267553
12.8643	12.7208	0.00028424	0.00226515
12.8648	12.7213	0.000120854	0.00299888
12.8652	12.7217	0.000203947	0.0041936
12.8657	12.7222	-0.00144477	0.00362147
12.8662	12.7227	-0.000362099	0.00278934
12.8667	12.7231	0.000469831	0.00233366
12.8671	12.7236	4.2897e-05	0.00301354
12.8676	12.7241	0.000141061	0.00415984
12.8681	12.7245	-0.00124691	0.00373652
12.8686	12.725	-0.000389173	0.00275182
12.869	12.7255	0.000438156	0.00233865
12.8695	12.726	0.000158931	0.00312482
12.87	12.7265	9.45115e-05	0.00429153
12.8704	12.7269	-0.00126125	0.0037194
12.8709	12.7274	-0.000346226	0.00261546
12.8714	12.7279	0.000585669	0.00238348
12.8719	12.7283	9.098e-05	0.00323225
12.8723	12.7288	4.62321e-05	0.00434307
12.8728	12.7293	-0.00117149	0.00358787
12.8733	12.7297	-0.000411378	0.00269625
12.8737	12.7302	0.000546057	0.00240216
12.8742	12.7307	6.00364e-05	0.00315317
12.8747	12.7312	-5.19316e-05	0.00420917
12.8752	12.7317	-0.00111727	0.00360795
12.8756	12.7321	-0.000345691	0.00261218
12.8761	12.7326	0.000629882	0.00235374
12.8766	12.7331	-3.07258e-05	0.003217
12.8771	12.7335	1.52885e-05	0.00429743
12.8775	12.734	-0.00118782	0.0036291
12.878	12.7345	-0.000359496	0.00254056
12.8785	12.735	0.000651087	0.00238971
12.8789	12.7354	3.10903e-05	0.00317497
12.8794	12.7359	-0.00015063	0.00419237
12.8799	12.7364	-0.00105385	0.00353789
12.8804	12.7369	-0.000530551	0.00246787
12.8808	12.7374	0.000670831	0.0025032
12.8813	12.7378	6.41028e-05	0.0032125
12.8818	12.7383	-0.000126357	0.00431799
12.8822	12.7388	-0.00112421	0.00359828
12.8827	12.7392	-0.000396111	0.00246599
12.8832	12.7397	0.000689433	0.00252499
12.8837	12.7402	-3.01908e-05	0.00333533
12.8841	12.7406	-0.000247795	0.00439101
12.8846	12.7411	-0.000984825	0.00359296
12.8851	12.7416	-0.000443124	0.00242911
12.8856	12.7421	0.000926174	0.0024333
12.886	12.7425	-9.51996e-06	0.00326044
12.8865	12.743	-0.000331085	0.00420745
12.887	12.7435	-0.00090587	0.00355265
12.8874	12.7439	-0.000382039	0.00249353
12.8879	12.7444	0.000938444	0.00253605
12.8884	12.7449	1.32197e-05	0.0033895
12.8889	12.7454	-0.000299945	0.00420778
12.8893	12.7458	-0.0010071	0.00356199
12.8898	12.7463	-0.000466666	0.00235562
12.8903	12.7468	0.000885492	0.00265873
12.8907	12.7473	-6.70733e-05	0.0032919
12.8912	12.7478	-0.000381771	0.00427424
12.8917	12.7482	-0.000824043	0.00351265
12.8922	12.7487	-0.000450525	0.0022935
12.8926	12.7492	0.000903434	0.00260096
12.8931	12.7496	-4.70627e-05	0.00335696
12.8936	12.7501	-0.000406045	0.00423081
12.8941	12.7505	-0.000859321	0.00339793
12.8945	12.751	-0.000490672	0.00217067
12.895	12.7515	0.000985992	0.0025776
12.8955	12.752	-8.98496e-06	0.00346299
12.8959	12.7524	-0.000475066	0.00411903
12.8964	12.7529	-0.000917338	0.00345365
12.8969	12.7533	-0.000574496	0.00225335
12.8974	12.7538	0.000935912	0.00257433
12.8978	12.7543	-6.9071e-05	0.00339637
12.8983	12.7548	-0.000522882	0.00419221
12.8988	12.7552	-0.000902802	0.00352404
