# 1304     AichiSR QXAFS
# Start     : 8.9544
# End       : 9.0544
# Dir       : Forward
# Points    : 300
# ScanTime  : 1.01549
# Date      : 13.04.24 00:16
# Ring Cur. : 0.9[mA]
12.7557	12.7563	-0.000409112	0.00264906
12.7562	12.7558	0.000471632	0.00238192
12.7566	12.7553	0.000122923	0.00310491
12.7571	12.7548	9.65803e-05	0.00420015
12.7576	12.7544	-0.00116228	0.00359361
12.7581	12.7539	-0.000414713	0.00258088
12.7585	12.7534	0.00053425	0.00249853
12.759	12.753	8.84474e-05	0.00320439
12.7595	12.7525	1.40222e-05	0.0041841
12.7599	12.752	-0.00123644	0.00363484
12.7604	12.7516	-0.000414249	0.00256285
12.7609	12.7511	0.000633217	0.00246632
12.7614	12.7506	7.17718e-05	0.00308499
12.7618	12.7502	-0.000113819	0.00429963
12.7623	12.7497	-0.00117248	0.00363999
12.7628	12.7492	-0.000422382	0.00247624
12.7632	12.7488	0.000632682	0.00234472
12.7637	12.7483	9.68823e-06	0.00322339
12.7642	12.7478	-0.000136559	0.00420294
12.7647	12.7474	-0.00106592	0.00359222
12.7651	12.7469	-0.000336756	0.00258153
12.7656	12.7464	0.000647752	0.00246567
12.7661	12.7459	3.49605e-05	0.00326436
12.7666	12.7455	-0.000275404	0.00426866
12.767	12.745	-0.00103264	0.00362722
12.7675	12.7445	-0.000500606	0.0024392
12.768	12.744	0.000706304	0.00251393
12.7684	12.7436	-8.82792e-05	0.00327305
12.7689	12.7431	-0.000184642	0.0042467
12.7694	12.7426	-0.00102857	0.00359549
12.7699	12.7422	-0.00041498	0.00251828
12.7703	12.7417	0.000814206	0.00246755
12.7708	12.7412	5.1101e-05	0.00324224
12.7713	12.7407	-0.000258532	0.00427596
12.7717	12.7403	-0.00108126	0.00356043
12.7722	12.7398	-0.000479935	0.00243019
12.7727	12.7393	0.00092744	0.00258432
12.7732	12.7389	-5.7068e-05	0.00333705
12.7736	12.7384	-0.000262134	0.00417229
12.7741	12.7379	-0.000922742	0.00362271
12.7746	12.7375	-0.000512145	0.00233087
12.7751	12.737	0.000783262	0.00251753
12.7755	12.7365	-5.88693e-05	0.00337458
12.776	12.736	-0.000430853	0.00425432
12.7765	12.7355	-0.000929876	0.00368375
12.7769	12.7351	-0.000533886	0.00230112
12.7774	12.7346	0.000958116	0.00254679
12.7779	12.7341	-0.000180504	0.00339122
12.7784	12.7336	-0.000358961	0.00422163
12.7788	12.7331	-0.000917338	0.0035483
12.7793	12.7327	-0.000616712	0.00221705
12.7798	12.7322	0.000948985	0.00258727
12.7802	12.7317	-6.65383e-05	0.00346128
12.7807	12.7313	-0.000420384	0.00424359
12.7812	12.7308	-0.000810703	0.00357428
12.7817	12.7303	-0.000491207	0.00231948
12.7821	12.7298	0.000988061	0.00275574
12.7826	12.7294	3.92944e-05	0.00342063
12.7831	12.7289	-0.000533618	0.00423736
12.7836	12.7284	-0.000763155	0.00340646
12.784	12.728	-0.000610309	0.0023729
12.7845	12.7275	0.00103227	0.00271166
12.785	12.727	-1.53877e-05	0.00348742
12.7854	12.7266	-0.000639451	0.00422737
12.7859	12.7261	-0.000732478	0.00344694
12.7864	12.7256	-0.00055329	0.0023008
12.7869	12.7251	0.00106395	0.00260112
12.7873	12.7246	-0.000146564	0.0034471
12.7878	12.7242	-0.000662458	0.00420123
12.7883	12.7237	-0.000644053	0.00350938
12.7887	12.7232	-0.000690067	0.00221582
12.7892	12.7228	0.000967319	0.00263414
12.7897	12.7223	1.47535e-05	0.00349676
12.7902	12.7219	-0.000605707	0.00422785
12.7906	12.7214	-0.000718407	0.00341285
12.7911	12.7209	-0.000575566	0.00220648
12.7916	12.7204	0.000914171	0.00269126
12.7921	12.72	-7.42074e-05	0.00361041
12.7925	12.7195	-0.000771626	0.00415361
12.793	12.719	-0.000696202	0.00344399
12.7935	12.7186	-0.000615178	0.00205578
12.7939	12.7181	0.000984459	0.00274903
12.7944	12.7176	-0.00019718	0.00354191
12.7949	12.7172	-0.000780561	0.00410502
12.7954	12.7167	-0.000567362	0.00342359
12.7958	12.7162	-0.000549955	0.00213765
12.7963	12.7157	0.000877627	0.0025862
12.7968	12.7153	-0.000102815	0.00352994
12.7972	12.7148	-0.000940077	0.00407233
12.7977	12.7143	-0.000545354	0.00341441
12.7982	12.7138	-0.000589103	0.00211306
12.7987	12.7133	0.000904166	0.00267618
12.7991	12.7129	-3.91973e-05	0.00369153
12.7996	12.7124	-0.000965153	0.00410502
12.8001	12.712	-0.000576565	0.00324331
12.8006	12.7115	-0.000562493	0.00207414
12.801	12.711	0.000888631	0.00282188
12.8015	12.7105	-9.31481e-05	0.00375209
12.802	12.7101	-0.000976158	0.00401972
12.8024	12.7096	-0.000516747	0.00327928
12.8029	12.7091	-0.000624381	0.00209299
12.8034	12.7087	0.000946648	0.00275944
12.8039	12.7082	-3.40609e-05	0.00366195
12.8043	12.7077	-0.00102831	0.0042009
12.8048	12.7072	-0.000406312	0.00321733
12.8053	12.7068	-0.000547423	0.00217722
12.8057	12.7063	0.000735982	0.00276459
12.8062	12.7058	-2.73907e-05	0.00367006
12.8067	12.7053	-0.00096642	0.00406127
12.8072	12.7048	-0.000502942	0.00333533
12.8076	12.7043	-0.000433118	0.00213905
12.8081	12.7039	0.00073418	0.002785
12.8086	12.7034	-0.000145565	0.00368031
12.8091	12.7029	-0.00116202	0.00398375
12.8095	12.7025	-0.00039711	0.00323601
12.81	12.702	-0.000448456	0.00222
12.8105	12.7015	0.000731915	0.0027414
12.8109	12.7011	7.25743e-05	0.00380019
12.8114	12.7006	-0.00106358	0.00396163
12.8119	12.7001	-0.000354359	0.00324036
12.8124	12.6996	-0.000358497	0.00209094
12.8128	12.6992	0.000751855	0.00289725
12.8133	12.6987	4.03644e-05	0.00385731
12.8138	12.6983	-0.00109019	0.00402734
12.8142	12.6978	-0.000366701	0.00318496
12.8147	12.6973	-0.000307881	0.00208021
12.8152	12.6968	0.000694836	0.00279729
12.8157	12.6964	7.43045e-05	0.00385952
12.8161	12.6959	-0.00112467	0.00399464
12.8166	12.6954	-0.000339824	0.00315538
12.8171	12.6949	-0.000157033	0.00215338
12.8176	12.6944	0.000706839	0.00286751
12.818	12.694	-2.5393e-05	0.00389533
12.8185	12.6935	-0.00112647	0.00403979
12.819	12.693	-0.000347225	0.00310679
12.8194	12.6926	-6.01356e-05	0.00226736
12.8199	12.6921	0.000489503	0.00284679
12.8204	12.6917	0.000154597	0.00392893
12.8209	12.6912	-0.00130132	0.00387648
12.8213	12.6907	-0.000393507	0.00313154
12.8218	12.6902	-0.000196645	0.00219493
12.8223	12.6898	0.000619145	0.00283777
12.8227	12.6893	8.12422e-05	0.00386263
12.8232	12.6888	-0.00125865	0.00383772
12.8237	12.6884	-0.000421383	0.00308622
12.8242	12.6879	-0.000176438	0.00207151
12.8246	12.6874	0.000607142	0.00285006
12.8251	12.687	8.20447e-05	0.00406175
12.8256	12.6865	-0.00123184	0.00387492
12.8261	12.686	-0.000344425	0.00305713
12.8265	12.6855	-6.4737e-05	0.00211274
12.827	12.685	0.000491036	0.00290643
12.8275	12.6846	0.000121656	0.00408945
12.8279	12.6841	-0.00150666	0.0037806
12.8284	12.6836	-0.000345495	0.00293086
12.8289	12.6831	-0.000115085	0.0022236
12.8294	12.6827	0.00045476	0.0029103
12.8298	12.6822	0.000146465	0.00408151
12.8303	12.6817	-0.00150079	0.00369948
12.8308	12.6813	-0.000359763	0.0029089
12.8312	12.6808	0.000136459	0.00219386
12.8317	12.6803	0.000340723	0.00295921
12.8322	12.6798	0.000129325	0.00416279
12.8327	12.6794	-0.0013246	0.00377577
12.8331	12.6789	-0.000333688	0.00288464
12.8336	12.6784	4.69634e-05	0.00218559
12.8341	12.678	0.000379336	0.00300575
12.8346	12.6775	0.000121853	0.00420171
12.835	12.677	-0.00151099	0.00367097
12.8355	12.6765	-0.000294077	0.00304575
12.836	12.676	0.000188609	0.0022155
12.8364	12.6756	0.000379871	0.00289489
12.8369	12.6751	8.09747e-05	0.00421868
12.8374	12.6746	-0.00135681	0.00379708
12.8379	12.6741	-0.000269803	0.00289087
12.8383	12.6737	0.000174073	0.00221893
12.8388	12.6732	0.000367065	0.00292136
12.8393	12.6727	0.000166137	0.00419844
12.8397	12.6723	-0.0015478	0.00368719
12.8402	12.6718	-0.000356161	0.00286579
12.8407	12.6713	0.000294709	0.00222172
12.8412	12.6709	0.000332519	0.00301837
12.8416	12.6704	0.000201682	0.00419344
12.8421	12.6699	-0.00136041	0.00362893
12.8426	12.6694	-0.000319884	0.00281318
12.8431	12.669	0.00034479	0.0022949
12.8435	12.6685	0.00014873	0.00309884
12.844	12.6681	0.00033152	0.0042372
12.8445	12.6676	-0.00152733	0.00375988
12.8449	12.6671	-0.000263865	0.00283712
12.8454	12.6666	0.000422818	0.00226875
12.8459	12.6662	0.00022262	0.00311178
12.8464	12.6657	0.000167938	0.00427923
12.8468	12.6652	-0.00141743	0.00375939
12.8473	12.6647	-0.000261599	0.00284432
12.8478	12.6642	0.000304714	0.00225195
12.8482	12.6638	9.30488e-05	0.00303157
12.8487	12.6633	0.000143665	0.00427424
12.8492	12.6628	-0.00144784	0.00364327
12.8497	12.6624	-0.000344158	0.00265405
12.8501	12.6619	0.000417146	0.00232727
12.8506	12.6615	9.22463e-05	0.00307549
12.8511	12.661	0.000143861	0.00428841
12.8516	12.6605	-0.00128065	0.00367065
12.852	12.66	-0.00029661	0.00282097
12.8525	12.6596	0.000482101	0.00239159
12.853	12.6591	2.90927e-05	0.00319537
12.8534	12.6586	8.89112e-05	0.00427612
12.8539	12.6582	-0.00137422	0.00361041
12.8544	12.6577	-0.000277936	0.0027115
12.8549	12.6572	0.000603807	0.00234799
12.8553	12.6567	0.000119855	0.00320938
12.8558	12.6563	3.49605e-05	0.00437732
12.8563	12.6558	-0.00117509	0.00360574
12.8567	12.6553	-0.000416247	0.00249279
12.8572	12.6548	0.000612742	0.00220648
12.8577	12.6543	7.87096e-05	0.00322618
12.8582	12.6539	-1.15888e-05	0.00428439
12.8586	12.6534	-0.00119936	0.00353928
12.8591	12.6529	-0.000328819	0.00256719
12.8596	12.6525	0.000609942	0.00229366
12.8601	12.652	-2.4858e-05	0.00317062
12.8605	12.6515	-0.000150898	0.00427768
12.861	12.651	-0.00115001	0.00359517
12.8615	12.6506	-0.000457392	0.00255506
12.8619	12.6501	0.000597672	0.00247345
12.8624	12.6496	7.58383e-05	0.00320938
12.8629	12.6492	-6.55395e-05	0.00428095
12.8634	12.6487	-0.00125865	0.0036386
12.8638	12.6482	-0.000462796	0.00258947
12.8643	12.6477	0.000660023	0.00245338
12.8648	12.6473	4.77659e-05	0.00325486
12.8652	12.6468	-0.00011175	0.00427472
12.8657	12.6463	-0.0011224	0.00362803
12.8662	12.6458	-0.000421115	0.00250943
12.8667	12.6453	0.00072858	0.00246444
12.8671	12.6449	-7.95401e-05	0.00315489
12.8676	12.6444	-0.000163632	0.00422335
12.8681	12.6439	-0.00102164	0.00366474
12.8686	12.6434	-0.000390707	0.00246337
12.869	12.643	0.000831613	0.00237741
12.8695	12.6425	-5.91368e-05	0.00332271
12.87	12.6421	-0.000399642	0.00425744
12.8704	12.6416	-0.00105285	0.00355904
12.8709	12.6411	-0.000442589	0.00244952
12.8714	12.6407	0.000844882	0.00262914
12.8719	12.6402	-2.15229e-05	0.00335074
12.8723	12.6397	-0.000279738	0.00427628
12.8728	12.6392	-0.000981758	0.00360091
12.8733	12.6388	-0.000399107	0.00241634
12.8737	12.6383	0.000989863	0.00253622
12.8742	12.6379	-5.34654e-05	0.00339138
12.8747	12.6374	-0.000409112	0.00429513
12.8752	12.6369	-0.000989427	0.00358304
12.8756	12.6364	-0.000507811	0.00243502
12.8761	12.636	0.000977592	0.00268691
12.8766	12.6355	-1.84553e-05	0.00348259
12.8771	12.635	-0.00041218	0.00419827
12.8775	12.6345	-0.000828644	0.00354052
12.878	12.634	-0.000494203	0.00233505
12.8785	12.6336	0.00106502	0.00258416
12.8789	12.6331	-7.18366e-06	0.00342547
12.8794	12.6326	-0.000312483	0.00419655
12.8799	12.6322	-0.000786233	0.0035592
12.8804	12.6317	-0.000568628	0.00228711
12.8808	12.6312	0.000964323	0.00261637
12.8813	12.6308	3.98294e-05	0.0034208
12.8818	12.6303	-0.000515748	0.00424809
12.8822	12.6298	-0.000767025	0.00345784
12.8827	12.6293	-0.000651187	0.0022913
12.8832	12.6289	0.00102667	0.00276943
12.8837	12.6284	-0.000148098	0.00353413
12.8841	12.6279	-0.000549688	0.00425572
12.8846	12.6275	-0.000818639	0.00355329
12.8851	12.627	-0.000619512	0.00223885
12.8856	12.6265	0.00108389	0.0026511
12.886	12.626	-9.72145e-05	0.00353085
12.8865	12.6256	-0.000479133	0.00419672
12.887	12.6251	-0.000717943	0.00351593
12.8874	12.6246	-0.00057323	0.00222779
12.8879	12.6241	0.00103154	0.00268364
12.8884	12.6236	-9.26131e-05	0.00343121
12.8889	12.6232	-0.000594703	0.00411281
12.8893	12.6227	-0.000699805	0.00346128
12.8898	12.6222	-0.000739416	0.00227015
12.8903	12.6218	0.00103841	0.00271215
12.8907	12.6213	-0.00010615	0.00348307
12.8912	12.6208	-0.000747888	0.00407995
12.8917	12.6203	-0.00065272	0.00340555
12.8922	12.6199	-0.000636116	0.00213207
12.8926	12.6194	0.00106935	0.00275681
12.8931	12.6189	-5.73355e-05	0.00347577
12.8936	12.6185	-0.000706939	0.00414271
12.8941	12.618	-0.000540752	0.00338671
12.8945	12.6175	-0.000662726	0.00225565
12.895	12.617	0.000932577	0.00278033
12.8955	12.6166	-0.000135292	0.00362287
12.8959	12.6161	-0.00085372	0.00416091
12.8964	12.6156	-0.000648386	0.00340383
12.8969	12.6151	-0.000568361	0.0022345
12.8974	12.6147	0.000963253	0.00279852
12.8978	12.6142	-2.63918e-05	0.00365073
12.8983	12.6137	-0.000894866	0.00411624
12.8988	12.6132	-0.000434652	0.00343014
