# 1304     AichiSR QXAFS
# Start     : 8.9544
# End       : 9.0544
# Dir       : Forward
# Points    : 300
# ScanTime  : 1.01549
# Date      : 13.04.23 23:15
# Ring Cur. : 0.9[mA]
12.7557	12.7562	4.55181e-06	0.00222156
12.7562	12.7557	0.000364533	0.00286547
12.7566	12.7552	0.000200879	0.00395433
12.7571	12.7547	-0.00141103	0.00374603
12.7576	12.7543	-0.000407044	0.00307737
12.7581	12.7538	0.000168669	0.00222205
12.7585	12.7533	0.00029091	0.00300887
12.759	12.7529	0.0001638	0.00407839
12.7595	12.7524	-0.00151559	0.00382822
12.7599	12.7519	-0.000395576	0.00288399
12.7604	12.7515	4.87647e-05	0.00223573
12.7609	12.751	0.000311313	0.00300608
12.7614	12.7505	6.74379e-05	0.00408446
12.7618	12.75	-0.0015506	0.00379692
12.7623	12.7496	-0.000355893	0.00291201
12.7628	12.7491	0.00017814	0.00229941
12.7632	12.7487	0.000331788	0.00299018
12.7637	12.7482	0.000200148	0.00410674
12.7642	12.7477	-0.00142863	0.00367408
12.7647	12.7473	-0.000304011	0.00280712
12.7651	12.7468	0.000189144	0.00220632
12.7656	12.7463	0.000172004	0.00294487
12.7661	12.7458	0.000131323	0.00422941
12.7666	12.7453	-0.00141563	0.00372981
12.767	12.7449	-0.000443855	0.00283981
12.7675	12.7444	0.000242292	0.00227761
12.768	12.7439	9.96479e-05	0.00287513
12.7684	12.7434	0.000193478	0.00413149
12.7689	12.743	-0.0014197	0.00365245
12.7694	12.7425	-0.00028334	0.00281286
12.7699	12.7421	0.000317181	0.00217223
12.7703	12.7416	0.000151066	0.00293725
12.7708	12.7411	0.000265567	0.00414985
12.7713	12.7406	-0.0013412	0.00367113
12.7717	12.7402	-0.000382503	0.00265422
12.7722	12.7397	0.000348392	0.00234799
12.7727	12.7392	8.19735e-05	0.00286424
12.7732	12.7388	4.20945e-05	0.00428063
12.7736	12.7383	-0.00149999	0.0035592
12.7741	12.7378	-0.000514214	0.00270264
12.7746	12.7373	0.000359396	0.00225925
12.7751	12.7369	-1.30514e-05	0.00303501
12.7755	12.7364	3.75643e-05	0.00414829
12.776	12.7359	-0.00134101	0.00359452
12.7765	12.7354	-0.000357231	0.0027305
12.7769	12.7349	0.000378801	0.00224164
12.7774	12.7345	2.08887e-05	0.00300264
12.7779	12.734	0.000125188	0.00418287
12.7784	12.7335	-0.00140796	0.00359656
12.7788	12.733	-0.00045279	0.0027428
12.7793	12.7326	0.00046423	0.00234472
12.7798	12.7321	0.000120319	0.00305369
12.7802	12.7316	1.0687e-05	0.00406766
12.7807	12.7312	-0.00137395	0.00365573
12.7812	12.7307	-0.000443855	0.00264348
12.7817	12.7302	0.000552121	0.00232759
12.7821	12.7297	-1.0055e-05	0.00311613
12.7826	12.7293	6.71704e-05	0.00417787
12.7831	12.7288	-0.00128526	0.0036677
12.7836	12.7283	-0.000444123	0.00260611
12.784	12.7279	0.00055419	0.00235545
12.7845	12.7274	8.71099e-05	0.00309213
12.785	12.7269	-0.000133223	0.00429308
12.7854	12.7264	-0.0012129	0.00363688
12.7859	12.726	-0.000345691	0.00257481
12.7864	12.7255	0.00061861	0.00234955
12.7869	12.725	8.2241e-05	0.00322667
12.7873	12.7245	-3.83948e-05	0.00416918
12.7878	12.7241	-0.00124844	0.00361664
12.7883	12.7236	-0.000462796	0.0025272
12.7887	12.7231	0.0005864	0.00232432
12.7892	12.7227	-1.43889e-05	0.0030786
12.7897	12.7222	-0.000101013	0.00433168
12.7902	12.7217	-0.0012203	0.00352044
12.7906	12.7213	-0.000409112	0.00266216
12.7911	12.7208	0.000657758	0.00241445
12.7916	12.7203	7.5107e-05	0.00318603
12.7921	12.7198	-0.000307079	0.00425014
12.7925	12.7194	-0.00119936	0.00366753
12.793	12.7189	-0.000506741	0.00247099
12.7935	12.7185	0.000703772	0.00234144
12.7939	12.718	-1.97216e-05	0.00336335
12.7944	12.7175	-0.000266736	0.00425448
12.7949	12.717	-0.00114748	0.00353601
12.7954	12.7166	-0.000468128	0.00257621
12.7958	12.7161	0.000700437	0.00244764
12.7963	12.7156	-5.91368e-05	0.00321421
12.7968	12.7151	-0.000223986	0.00431348
12.7972	12.7147	-0.00104591	0.00362147
12.7977	12.7142	-0.000424183	0.00245182
12.7982	12.7137	0.00093411	0.00258104
12.7987	12.7132	7.35732e-05	0.00315612
12.7991	12.7128	-0.000307079	0.00436937
12.7996	12.7123	-0.000957752	0.00349971
12.8001	12.7118	-0.000594436	0.00239266
12.8006	12.7114	0.000775593	0.00254089
12.801	12.7109	1.70898e-05	0.00327665
12.8015	12.7104	-0.000336489	0.00419221
12.802	12.7099	-0.000913539	0.00352232
12.8024	12.7095	-0.000467397	0.00225474
12.8029	12.709	0.000814206	0.00250771
12.8034	12.7085	-5.12003e-05	0.00336942
12.8039	12.7081	-0.000339556	0.00413288
12.8043	12.7076	-0.000922207	0.00351732
12.8048	12.7071	-0.000481469	0.00228137
12.8053	12.7066	0.000878626	0.00257621
12.8057	12.7062	-7.70075e-05	0.00348307
12.8062	12.7057	-0.000443855	0.00414115
12.8067	12.7052	-0.000892066	0.00349118
12.8072	12.7047	-0.000609577	0.00232571
12.8076	12.7042	0.000902436	0.0024828
12.8081	12.7037	-0.000111483	0.00333205
12.8086	12.7033	-0.000524416	0.00408634
12.8091	12.7028	-0.000841646	0.00347873
12.8095	12.7023	-0.000547423	0.00227187
12.81	12.7019	0.000940246	0.00263537
12.8105	12.7014	-0.000169571	0.00340523
12.8109	12.7009	-0.000571696	0.0041455
12.8114	12.7005	-0.000814305	0.00352355
12.8119	12.7	-0.000587569	0.00219493
12.8124	12.6995	0.00103408	0.00259629
12.8128	12.6991	-6.93385e-05	0.00337736
12.8133	12.6986	-0.000703604	0.00412666
12.8138	12.6981	-0.000843715	0.00346283
12.8142	12.6977	-0.00064432	0.00223123
12.8147	12.6972	0.00104174	0.00263086
12.8152	12.6967	-0.000114354	0.0034412
12.8157	12.6962	-0.000636651	0.00416263
12.8161	12.6958	-0.000734547	0.00341162
12.8166	12.6953	-0.000697468	0.00218141
12.8171	12.6948	0.000883227	0.00270511
12.8176	12.6943	-0.00021225	0.00342514
12.818	12.6939	-0.000653255	0.00420638
12.8185	12.6934	-0.000819709	0.00345038
12.819	12.6929	-0.000665526	0.00219418
12.8194	12.6925	0.00108469	0.00254228
12.8199	12.692	-0.000256463	0.00347963
12.8204	12.6915	-0.000728679	0.00415951
12.8209	12.6911	-0.000714875	0.00338048
12.8213	12.6906	-0.00061211	0.00215199
12.8218	12.6901	0.00105475	0.00267086
12.8223	12.6896	-7.42074e-05	0.00353273
12.8227	12.6892	-0.00086979	0.00414583
12.8232	12.6887	-0.000561762	0.00335541
12.8237	12.6883	-0.000633048	0.00218779
12.8242	12.6878	0.00099853	0.00259178
12.8246	12.6873	-0.000121488	0.00359313
12.8251	12.6868	-0.000837312	0.00410019
12.8256	12.6864	-0.000607509	0.00343825
12.8261	12.6859	-0.0005883	0.0021056
12.8265	12.6854	0.000955584	0.0027319
12.827	12.6849	-8.4409e-05	0.00366958
12.8275	12.6844	-0.000750153	0.00407109
12.8279	12.684	-0.000650723	0.00340662
12.8284	12.6835	-0.00061211	0.00218436
12.8289	12.683	0.000975256	0.00270543
12.8294	12.6825	-6.29357e-05	0.00361181
12.8298	12.6821	-0.000879795	0.0041273
12.8303	12.6816	-0.000660657	0.00339932
12.8308	12.6811	-0.000530551	0.00215961
12.8312	12.6807	0.000881961	0.00277549
12.8317	12.6802	-0.000193309	0.00364917
12.8322	12.6797	-0.000991228	0.00409085
12.8327	12.6792	-0.000463063	0.00340474
12.8331	12.6788	-0.000621313	0.00208799
12.8336	12.6783	0.000835679	0.00282155
12.8341	12.6778	3.018e-06	0.00375021
12.8346	12.6774	-0.000929073	0.00402251
12.835	12.6769	-0.000485072	0.00327944
12.8355	12.6764	-0.000575566	0.00216396
12.836	12.6759	0.00085075	0.0027909
12.8364	12.6754	7.91734e-05	0.00372579
12.8369	12.675	-0.00096642	0.00396769
12.8374	12.6745	-0.000498608	0.00331944
12.8379	12.674	-0.000491938	0.00208472
12.8383	12.6735	0.000912637	0.0028127
12.8388	12.6731	-0.000130156	0.00373389
12.8393	12.6726	-0.00104825	0.00400071
12.8397	12.6721	-0.000438255	0.00330091
12.8402	12.6717	-0.000450258	0.00214076
12.8407	12.6712	0.000746183	0.0027378
12.8412	12.6707	-3.15283e-05	0.0037893
12.8416	12.6703	-0.00111113	0.00411141
12.8421	12.6698	-0.000388905	0.00319644
12.8426	12.6693	-0.000363098	0.00205685
12.8431	12.6689	0.000761522	0.00279729
12.8435	12.6684	-5.42679e-05	0.00383133
12.844	12.6679	-0.00108379	0.00392007
12.8445	12.6675	-0.000492206	0.00306803
12.8449	12.667	-0.000466666	0.00213003
12.8454	12.6665	0.000653424	0.00279369
12.8459	12.666	3.36942e-05	0.00388877
12.8464	12.6656	-0.00120316	0.00390918
12.8468	12.6651	-0.000487872	0.00308999
12.8473	12.6646	-0.000307346	0.00210823
12.8478	12.6641	0.00062528	0.00282982
12.8482	12.6636	3.95619e-05	0.00377856
12.8487	12.6632	-0.00121977	0.00378151
12.8492	12.6627	-0.000536419	0.00317234
12.8497	12.6623	-0.000230923	0.00199818
12.8501	12.6618	0.000562394	0.00277673
12.8506	12.6613	-9.10793e-05	0.00390499
12.8511	12.6609	-0.00130033	0.00394622
12.8516	12.6604	-0.000353895	0.00308295
12.852	12.6599	-0.000295611	0.00203957
12.8525	12.6594	0.000598938	0.00291373
12.853	12.659	9.15323e-06	0.00399276
12.8534	12.6585	-0.00141049	0.00386435
12.8539	12.658	-0.00040551	0.00311769
12.8544	12.6576	-0.000172104	0.00202555
12.8549	12.6571	0.000537853	0.00285801
12.8553	12.6566	9.60453e-05	0.00388115
12.8558	12.6561	-0.00134454	0.00386698
12.8563	12.6557	-0.000431852	0.00304419
12.8567	12.6552	-9.84808e-05	0.00212208
12.8572	12.6547	0.000419215	0.00283761
12.8577	12.6542	5.5435e-05	0.0039685
12.8582	12.6537	-0.00133867	0.00383772
12.8586	12.6533	-0.000362099	0.00315505
12.8591	12.6528	-6.60034e-05	0.00212348
12.8596	12.6523	0.00046703	0.00282515
12.8601	12.6519	6.9703e-05	0.00403233
12.8605	12.6514	-0.00141256	0.0038746
12.861	12.6509	-0.000413446	0.00295609
12.8615	12.6504	4.95672e-05	0.00220181
12.8619	12.65	0.00035533	0.00290579
12.8624	12.6495	0.000154597	0.0041142
12.8629	12.649	-0.00146498	0.00378913
12.8634	12.6486	-0.000349026	0.00295733
12.8638	12.6481	-9.13468e-05	0.00208004
12.8643	12.6476	0.000297045	0.00300887
12.8648	12.6471	0.000227756	0.00416558
12.8652	12.6467	-0.00151199	0.00385919
12.8657	12.6462	-0.000309147	0.00285441
12.8662	12.6457	0.000127256	0.00225442
12.8667	12.6452	0.000394406	0.00290037
12.8671	12.6447	0.000253296	0.00414411
12.8676	12.6443	-0.00136095	0.00375225
12.8681	12.6438	-0.000233991	0.00290004
12.8686	12.6433	2.62926e-05	0.00216616
12.869	12.6429	0.000390608	0.00297601
12.8695	12.6424	0.000107317	0.00414878
12.87	12.6419	-0.00153453	0.00372455
12.8704	12.6415	-0.000460994	0.00285506
12.8709	12.641	0.000202948	0.00206464
12.8714	12.6405	0.000216485	0.00296076
12.8719	12.64	0.000211883	0.00414443
12.8723	12.6396	-0.00152426	0.00377249
12.8728	12.6391	-0.000324486	0.0029234
12.8733	12.6387	0.000163533	0.00226065
12.8737	12.6382	0.000291641	0.00297757
12.8742	12.6377	0.000234623	0.00413911
12.8747	12.6373	-0.00145324	0.00359812
12.8752	12.6368	-0.000313018	0.00277222
12.8756	12.6363	0.000408211	0.00220025
12.8761	12.6358	0.00025203	0.00302255
12.8766	12.6353	8.991e-05	0.0042154
12.8771	12.6349	-0.00160762	0.00374291
12.8775	12.6344	-0.000233723	0.00275509
12.878	12.6339	0.000223155	0.00219665
12.8785	12.6334	0.000158931	0.00290643
12.8789	12.633	0.000257898	0.00419221
12.8794	12.6325	-0.00143557	0.00376111
12.8799	12.6321	-0.000350293	0.00274575
12.8804	12.6316	0.000330522	0.00224212
12.8808	12.6311	0.000140258	0.00304
12.8813	12.6306	0.00014593	0.00426506
12.8818	12.6302	-0.00137395	0.00368858
12.8822	12.6297	-0.000242659	0.00269658
12.8827	12.6292	0.0002615	0.0022155
12.8832	12.6288	0.000175339	0.00304451
12.8837	12.6283	0.000232822	0.00421696
12.8841	12.6278	-0.00139596	0.00365401
12.8846	12.6273	-0.000384304	0.00275525
12.8851	12.6269	0.000345325	0.00229973
12.8856	12.6264	-6.45235e-06	0.0029729
12.886	12.6259	0.000137993	0.00410502
12.8865	12.6254	-0.00139749	0.00371972
12.887	12.6249	-0.00034669	0.00276271
12.8874	12.6245	0.000304179	0.00244404
12.8879	12.624	0.000104249	0.00307426
12.8884	12.6235	0.000159466	0.00426162
12.8889	12.623	-0.0013218	0.00357042
12.8893	12.6226	-0.000352094	0.00270495
12.8898	12.6221	0.00051078	0.00230112
12.8903	12.6216	0.000185274	0.00317464
12.8907	12.6212	0.000115788	0.00422614
12.8912	12.6207	-0.00131413	0.00366507
12.8917	12.6202	-0.000350828	0.00263349
12.8922	12.6197	0.000550124	0.00249557
12.8926	12.6193	9.35127e-05	0.00320004
12.8931	12.6188	6.49053e-05	0.00424375
12.8936	12.6183	-0.00121137	0.00360591
12.8941	12.6179	-0.000342891	0.00254008
12.8945	12.6174	0.000546521	0.00223246
12.895	12.6169	3.2855e-06	0.00310491
12.8955	12.6164	-6.9071e-05	0.00425481
12.8959	12.616	-0.00127705	0.00368203
12.8964	12.6155	-0.000415248	0.0025767
12.8969	12.615	0.000493105	0.002343
12.8974	12.6145	2.06212e-05	0.0031281
12.8978	12.6141	-2.27892e-05	0.00415828
12.8983	12.6136	-0.00125585	0.00352371
12.8988	12.6131	-0.000345156	0.00249697
