# 1304     AichiSR QXAFS
# Start     : 8.9544
# End       : 9.0544
# Dir       : Backward
# Points    : 300
# ScanTime  : 1.01549
# Date      : 13.04.24 00:03
# Ring Cur. : 1[mA]
12.7557	12.6124	0.000156666	0.00319021
12.7562	12.6128	2.06212e-05	0.00429759
12.7566	12.6133	-0.00110166	0.00358116
12.7571	12.6138	-0.000297876	0.00263414
12.7576	12.6142	0.000746451	0.00253638
12.7581	12.6147	9.37802e-05	0.00325265
12.7585	12.6152	-2.25217e-05	0.00436052
12.759	12.6157	-0.00106332	0.00361492
12.7595	12.6161	-0.000334687	0.00262185
12.7599	12.6166	0.000806002	0.00248172
12.7604	12.6171	9.96479e-05	0.00335901
12.7609	12.6176	-0.000153234	0.00420311
12.7614	12.618	-0.001092	0.00365728
12.7618	12.6185	-0.000371035	0.00262136
12.7623	12.619	0.000748984	0.00249525
12.7628	12.6194	-7.75425e-05	0.00323757
12.7632	12.6199	-0.00013556	0.00434199
12.7637	12.6204	-0.00106439	0.00358829
12.7642	12.6209	-0.000338022	0.00260005
12.7647	12.6214	0.000847682	0.00257997
12.7651	12.6218	7.5107e-05	0.00333968
12.7656	12.6223	-0.000174172	0.00425572
12.7661	12.6228	-0.000951349	0.00366646
12.7666	12.6232	-0.000514143	0.00251893
12.767	12.6237	0.000820876	0.0026089
12.7675	12.6242	3.74931e-05	0.00335106
12.768	12.6246	-0.000303744	0.00434725
12.7684	12.6251	-0.000929341	0.00365245
12.7689	12.6256	-0.000459193	0.00248919
12.7694	12.6261	0.000981659	0.00263553
12.7699	12.6266	0.000103982	0.00348619
12.7703	12.627	-0.000307614	0.00440346
12.7708	12.6275	-0.000884129	0.00366695
12.7713	12.628	-0.000421847	0.00252983
12.7717	12.6285	0.00105375	0.00258711
12.7722	12.6289	8.15442e-06	0.0034412
12.7727	12.6294	-0.000261599	0.00421589
12.7732	12.6299	-0.000917605	0.00350471
12.7736	12.6303	-0.000374102	0.00246411
12.7741	12.6308	0.000892163	0.00262791
12.7746	12.6313	4.62321e-05	0.00345086
12.7751	12.6318	-0.000308612	0.00428202
12.7755	12.6322	-0.000781828	0.00355592
12.776	12.6327	-0.000501141	0.00241306
12.7765	12.6331	0.000920306	0.00280991
12.7769	12.6336	-6.98735e-06	0.00354486
12.7774	12.6341	-0.000292276	0.00421105
12.7779	12.6346	-0.000720743	0.00351389
12.7784	12.635	-0.000433386	0.00233956
12.7788	12.6355	0.00102234	0.00265422
12.7793	12.636	-4.22649e-05	0.0034725
12.7798	12.6365	-0.000425717	0.00422056
12.7802	12.6369	-0.000731747	0.00357337
12.7807	12.6374	-0.000487069	0.0024333
12.7812	12.6379	0.00105682	0.00273034
12.7817	12.6384	-3.53272e-05	0.00346004
12.7821	12.6388	-0.000526217	0.00429808
12.7826	12.6393	-0.000759356	0.0036386
12.7831	12.6397	-0.000571696	0.00238036
12.7836	12.6402	0.00110076	0.00266152
12.784	12.6407	5.77001e-05	0.00354953
12.7845	12.6412	-0.000524416	0.00426538
12.785	12.6416	-0.000576565	0.00346455
12.7854	12.6421	-0.000514214	0.00222639
12.7859	12.6426	0.00108189	0.00262882
12.7864	12.643	5.44362e-05	0.00357461
12.7869	12.6435	-0.000466398	0.00429759
12.7873	12.644	-0.000710809	0.00364638
12.7878	12.6444	-0.000433653	0.00222951
12.7883	12.6449	0.00103661	0.00267397
12.7887	12.6454	3.82956e-05	0.00357461
12.7892	12.6459	-0.00060651	0.00424777
12.7897	12.6463	-0.000659926	0.00354068
12.7902	12.6468	-0.00050601	0.00231497
12.7906	12.6473	0.00115705	0.00287792
12.7911	12.6478	2.52226e-05	0.00348135
12.7916	12.6483	-0.000733548	0.00419999
12.7921	12.6487	-0.000664723	0.00347513
12.7925	12.6492	-0.000662191	0.00229178
12.793	12.6497	0.000981926	0.00275992
12.7935	12.6501	4.95672e-05	0.00363844
12.7939	12.6506	-0.000666328	0.00415205
12.7944	12.6511	-0.000481736	0.00349848
12.7949	12.6516	-0.000649385	0.0021973
12.7954	12.652	0.00112484	0.00267241
12.7958	12.6525	-0.000109485	0.00354256
12.7963	12.653	-0.000704139	0.00425867
12.7968	12.6534	-0.00053715	0.00347078
12.7972	12.6539	-0.000722277	0.00225286
12.7977	12.6544	0.000961987	0.00277517
12.7982	12.6549	-2.61243e-05	0.00371382
12.7987	12.6553	-0.000648654	0.00422957
12.7991	12.6558	-0.00059704	0.00345193
12.7996	12.6563	-0.000547423	0.00221893
12.8001	12.6568	0.00102947	0.00276771
12.8006	12.6573	4.2362e-05	0.00359296
12.801	12.6577	-0.000774961	0.00412108
12.8015	12.6582	-0.000536954	0.00348119
12.802	12.6587	-0.000569895	0.00223681
12.8024	12.6591	0.000918237	0.00290472
12.8029	12.6596	0.000134194	0.00369637
12.8034	12.6601	-0.000913004	0.00409584
12.8039	12.6605	-0.000604441	0.00341801
12.8043	12.661	-0.000582433	0.00219574
12.8048	12.6615	0.000971189	0.00283449
12.8053	12.662	0.000173003	0.00365229
12.8057	12.6624	-0.000865723	0.00413944
12.8062	12.6629	-0.000349026	0.00333968
12.8067	12.6633	-0.000546156	0.00224508
12.8072	12.6638	0.000912905	0.00285957
12.8076	12.6643	3.11615e-05	0.00376873
12.8081	12.6648	-0.000974356	0.00413197
12.8086	12.6652	-0.000349294	0.00335524
12.8091	12.6657	-0.000390439	0.0021442
12.8095	12.6662	0.000932844	0.00294176
12.81	12.6667	0.000101449	0.00375644
12.8105	12.6671	-0.00103571	0.00412714
12.8109	12.6676	-0.0004766	0.00329174
12.8114	12.6681	-0.000429587	0.00226269
12.8119	12.6686	0.000798137	0.00285629
12.8124	12.669	-4.96168e-08	0.00384551
12.8128	12.6695	-0.000952152	0.00408494
12.8133	12.6699	-0.00028614	0.00331042
12.8138	12.6704	-0.000334955	0.00220304
12.8142	12.6709	0.000891164	0.00284711
12.8147	12.6714	0.000222156	0.00386263
12.8152	12.6718	-0.00105545	0.00399169
12.8157	12.6723	-0.000353093	0.00320922
12.8161	12.6728	-0.000348028	0.00221893
12.8166	12.6732	0.000713706	0.00280491
12.8171	12.6737	4.66959e-05	0.00395105
12.8176	12.6742	-0.0010045	0.00390295
12.818	12.6746	-0.00051828	0.00329313
12.8185	12.6751	-0.000259067	0.00223106
12.819	12.6756	0.000721643	0.00298379
12.8194	12.6761	0.000136727	0.00389001
12.8199	12.6766	-0.00111113	0.00403931
12.8204	12.677	-0.000214051	0.0031113
12.8209	12.6775	-0.000114354	0.00218608
12.8213	12.678	0.000694301	0.00284867
12.8218	12.6785	0.000106318	0.00395776
12.8223	12.6789	-0.00117609	0.00406282
12.8227	12.6794	-0.000274137	0.00322012
12.8232	12.6799	-0.000258264	0.00215134
12.8237	12.6803	0.000721375	0.0029198
12.8242	12.6808	0.000205481	0.00395137
12.8246	12.6813	-0.00111853	0.00407405
12.8251	12.6818	-0.000243194	0.00308048
12.8256	12.6822	-0.000220187	0.00219697
12.8261	12.6827	0.000514311	0.00286719
12.8265	12.6832	0.00013159	0.00402938
12.827	12.6836	-0.00109706	0.00404151
12.8275	12.6841	-0.000378169	0.00315006
12.8279	12.6846	-0.000112553	0.00223778
12.8284	12.6851	0.000625548	0.00294348
12.8289	12.6855	8.51123e-05	0.00399104
12.8294	12.686	-0.00116842	0.00401456
12.8298	12.6865	-0.000235257	0.00316128
12.8303	12.687	-8.03426e-05	0.00219321
12.8308	12.6875	0.00061301	0.00292045
12.8312	12.6879	6.13027e-05	0.00404398
12.8317	12.6884	-0.00122337	0.0039168
12.8322	12.6889	-0.000374299	0.00310163
12.8327	12.6893	-0.000104884	0.0023153
12.8331	12.6898	0.000540653	0.00286317
12.8336	12.6903	0.000241026	0.00398702
12.8341	12.6907	-0.0013246	0.00392442
12.8346	12.6912	-0.00031168	0.00305106
12.835	12.6917	0.000103251	0.00220336
12.8355	12.6922	0.000471364	0.00289473
12.836	12.6926	0.000217216	0.00399588
12.8364	12.6931	-0.00129753	0.00389221
12.8369	12.6935	-0.000283608	0.00305852
12.8374	12.694	0.000150531	0.00231497
12.8379	12.6945	0.000382404	0.00284351
12.8383	12.695	0.000107584	0.00405692
12.8388	12.6954	-0.001332	0.0037784
12.8393	12.6959	-0.000293274	0.00299888
12.8397	12.6964	0.000184007	0.00246911
12.8402	12.6969	0.000437888	0.00286252
12.8407	12.6974	0.000288841	0.0041623
12.8412	12.6978	-0.00134254	0.00384846
12.8416	12.6983	-0.000369233	0.00305697
12.8421	12.6988	3.13578e-05	0.00226827
12.8426	12.6992	0.000387005	0.00303828
12.8431	12.6997	0.000275572	0.0042853
12.8435	12.7001	-0.00140209	0.00377201
12.844	12.7006	-0.000247528	0.00297322
12.8445	12.7011	0.000144663	0.00234644
12.8449	12.7016	0.000486167	0.00291873
12.8454	12.702	0.000187877	0.00418319
12.8459	12.7025	-0.00137088	0.00379601
12.8464	12.703	-0.000221185	0.00299346
12.8468	12.7034	0.000188341	0.0023693
12.8473	12.7039	0.000327186	0.00294798
12.8478	12.7044	0.000239492	0.00420638
12.8482	12.7049	-0.00138982	0.0038097
12.8487	12.7054	-0.000216852	0.00288276
12.8492	12.7058	0.000292176	0.00226344
12.8497	12.7063	0.000282974	0.00296543
12.8501	12.7068	0.00024923	0.00415189
12.8506	12.7073	-0.00135761	0.00377545
12.8511	12.7078	-0.000319884	0.00294798
12.8516	12.7082	0.000262499	0.00228088
12.852	12.7087	0.000197544	0.00293102
12.8525	12.7092	0.00024536	0.00434667
12.853	12.7096	-0.00139876	0.00371349
12.8534	12.7101	-0.000201513	0.00289956
12.8539	12.7106	0.00030978	0.00244313
12.8544	12.7111	0.000297777	0.00306926
12.8549	12.7115	0.000253564	0.00433217
12.8553	12.712	-0.00134734	0.00386918
12.8558	12.7125	-0.000159102	0.00275386
12.8563	12.7129	0.000314648	0.00239142
12.8567	12.7134	0.000187877	0.00305197
12.8572	12.7139	0.000165869	0.00421851
12.8577	12.7143	-0.00124891	0.00377126
12.8582	12.7148	-0.000288405	0.0028594
12.8586	12.7153	0.000287575	0.00234939
12.8591	12.7158	0.000113185	0.00307893
12.8596	12.7163	0.000275037	0.00423253
12.8601	12.7167	-0.00121957	0.00379429
12.8605	12.7172	-0.000376903	0.00279508
12.861	12.7177	0.00045476	0.00232136
12.8615	12.7182	0.000236692	0.00321233
12.8619	12.7186	0.000167135	0.00431005
12.8624	12.7191	-0.00119423	0.00371923
12.8629	12.7195	-0.000394577	0.00265717
12.8634	12.72	0.000622213	0.0022236
12.8638	12.7205	9.83816e-05	0.00325437
12.8643	12.721	0.000142327	0.00428407
12.8648	12.7214	-0.00116915	0.00370538
12.8652	12.7219	-0.000303012	0.00278279
12.8657	12.7224	0.000472096	0.00231653
12.8662	12.7228	0.000225688	0.00319865
12.8667	12.7233	0.000100914	0.00422974
12.8671	12.7237	-0.00117375	0.00376036
12.8676	12.7242	-0.000317815	0.00269019
12.8681	12.7247	0.000495638	0.00242224
12.8686	12.7252	0.000171737	0.00324814
12.869	12.7257	9.93804e-05	0.00430414
12.8695	12.7261	-0.00111573	0.00374586
12.87	12.7266	-0.000316282	0.00264176
12.8704	12.7271	0.000599205	0.00246444
12.8709	12.7276	7.35732e-05	0.00324175
12.8714	12.728	5.79676e-05	0.00435863
12.8719	12.7285	-0.00111267	0.003659
12.8723	12.729	-0.000326019	0.00269953
12.8728	12.7294	0.000630149	0.0023008
12.8733	12.7299	6.89717e-05	0.00312391
12.8737	12.7304	1.21669e-06	0.00420123
12.8742	12.7308	-0.00116228	0.00369604
12.8747	12.7313	-0.000381504	0.00259973
12.8752	12.7318	0.000705038	0.00236217
12.8756	12.7323	5.82351e-05	0.00320954
12.8761	12.7327	2.62926e-05	0.00440657
12.8766	12.7332	-0.00104031	0.00355265
12.8771	12.7337	-0.000330888	0.00256375
12.8775	12.7341	0.000665962	0.00249123
12.878	12.7346	5.92339e-05	0.00315489
12.8785	12.7351	-8.77442e-05	0.00430521
12.8789	12.7356	-0.00109093	0.00356354
12.8794	12.7361	-0.000496807	0.00250615
12.8799	12.7366	0.000805734	0.00244232
12.8804	12.737	6.71704e-05	0.00332631
12.8808	12.7375	-0.000136095	0.00438166
12.8813	12.738	-0.00101784	0.00364311
12.8818	12.7385	-0.000464062	0.00250819
12.8822	12.7389	0.000849484	0.0025418
12.8827	12.7394	6.2569e-05	0.00335836
12.8832	12.7399	-0.000250863	0.00423892
12.8837	12.7403	-0.000959018	0.00361525
12.8841	12.7408	-0.000524683	0.00258678
12.8846	12.7413	0.000858954	0.00256547
12.8851	12.7418	8.79124e-05	0.0033931
12.8856	12.7422	-0.000110751	0.0042948
12.886	12.7427	-0.000925274	0.00363393
12.8865	12.7431	-0.000350293	0.00252409
12.887	12.7436	0.000824211	0.00252966
12.8874	12.7441	0.000143397	0.00333533
12.8879	12.7446	-0.000174172	0.00428251
12.8884	12.745	-0.000839381	0.0035206
12.8889	12.7455	-0.000445924	0.00257637
12.8893	12.746	0.000880695	0.00258104
12.8898	12.7465	3.36942e-05	0.00339712
12.8903	12.7469	-0.000292543	0.0041469
12.8907	12.7474	-0.000875925	0.00359689
12.8912	12.7479	-0.000478936	0.00237741
12.8917	12.7484	0.000900902	0.00255925
12.8922	12.7488	0.000133659	0.00324315
12.8926	12.7493	-0.000365631	0.00421868
12.8931	12.7498	-0.000804835	0.00360107
12.8936	12.7502	-0.000452059	0.00240511
12.8941	12.7507	0.000881694	0.0025812
12.8945	12.7512	8.42192e-06	0.00344833
12.895	12.7516	-0.000474799	0.00424842
12.8955	12.7521	-0.000916072	0.00351888
12.8959	12.7526	-0.000530551	0.00252081
12.8964	12.753	0.00105781	0.00259473
12.8969	12.7535	-3.65223e-06	0.00340678
12.8974	12.754	-0.000321418	0.00424809
12.8978	12.7544	-0.000680329	0.00355158
12.8983	12.7549	-0.000416247	0.00222377
12.8988	12.7554	0.00103641	0.00262415
