# 1304     AichiSR QXAFS
# Start     : 8.9544
# End       : 9.0544
# Dir       : Backward
# Points    : 300
# ScanTime  : 1.01549
# Date      : 13.04.23 22:51
# Ring Cur. : 1[mA]
12.7557	12.6121	-0.000578099	0.00220943
12.7562	12.6125	0.000840013	0.00290112
12.7566	12.613	-9.72145e-05	0.00376562
12.7571	12.6135	-0.00112874	0.00402906
12.7576	12.6139	-0.000437987	0.00323102
12.7581	12.6144	-0.000374102	0.00217706
12.7585	12.6149	0.000739781	0.00284367
12.759	12.6153	1.0152e-05	0.00380707
12.7595	12.6158	-0.00114081	0.00402267
12.7599	12.6163	-0.000453325	0.00331788
12.7604	12.6168	-0.000372569	0.00219869
12.7609	12.6173	0.000776396	0.00275976
12.7614	12.6177	6.00364e-05	0.00393548
12.7618	12.6182	-0.00119449	0.00398063
12.7623	12.6187	-0.000372034	0.00321266
12.7628	12.6191	-0.000273602	0.00211306
12.7632	12.6196	0.000590734	0.0028921
12.7637	12.6201	3.95619e-05	0.00393983
12.7642	12.6205	-0.00121823	0.00394203
12.7647	12.621	-0.00039991	0.00320954
12.7651	12.6215	-0.000169036	0.00212273
12.7656	12.622	0.000525315	0.00288152
12.7661	12.6224	-2.66593e-05	0.00388738
12.7666	12.6229	-0.00127632	0.00387058
12.767	12.6234	-0.000395843	0.00313621
12.7675	12.6239	-0.000211251	0.00214855
12.768	12.6243	0.000616077	0.00274403
12.7684	12.6248	9.29777e-05	0.00405348
12.7689	12.6253	-0.00134454	0.0039649
12.7694	12.6258	-0.000539486	0.00306975
12.7699	12.6262	-0.000304279	0.0021828
12.7703	12.6267	0.000326455	0.00285629
12.7708	12.6272	-3.25271e-05	0.00403619
12.7713	12.6277	-0.00134994	0.00385608
12.7717	12.6281	-0.000310681	0.00303968
12.7722	12.6286	-9.10793e-05	0.00222377
12.7727	12.6291	0.000485169	0.00287792
12.7732	12.6295	8.53798e-05	0.00406921
12.7736	12.63	-0.00135248	0.00381576
12.7741	12.6305	-0.000462528	0.00313948
12.7746	12.631	-0.000111554	0.00213486
12.7751	12.6314	0.000429684	0.00291127
12.7755	12.6319	0.000102716	0.00412231
12.776	12.6324	-0.00133507	0.00385812
12.7765	12.6328	-0.000337024	0.00298846
12.7769	12.6333	8.48448e-05	0.00223385
12.7774	12.6338	0.000517379	0.00293864
12.7779	12.6342	7.5107e-05	0.00417336
12.7784	12.6347	-0.00147338	0.00394015
12.7788	12.6352	-0.000321685	0.0029679
12.7793	12.6357	1.19533e-05	0.00223418
12.7798	12.6361	0.000438156	0.00287948
12.7802	12.6366	0.00018094	0.0041659
12.7807	12.6371	-0.00144884	0.00372858
12.7812	12.6376	-0.000407846	0.00296839
12.7817	12.6381	0.000111187	0.00225597
12.7821	12.6385	0.000258433	0.00307409
12.7826	12.639	8.83762e-05	0.00414394
12.7831	12.6394	-0.00148412	0.00379847
12.7836	12.6399	-0.00030888	0.00298052
12.784	12.6404	0.000224154	0.00220427
12.7845	12.6409	0.000285774	0.00295437
12.785	12.6413	0.00021315	0.00427489
12.7854	12.6418	-0.00145244	0.00368842
12.7859	12.6423	-0.000398108	0.003045
12.7864	12.6427	0.000114718	0.00231874
12.7869	12.6432	0.000197812	0.00307876
12.7873	12.6436	0.000234623	0.00427628
12.7878	12.6441	-0.00157054	0.00377061
12.7883	12.6446	-0.000362296	0.00301649
12.7887	12.6451	0.000321783	0.00228588
12.7892	12.6456	0.000255365	0.00304403
12.7897	12.646	0.000248427	0.00431021
12.7902	12.6465	-0.00156594	0.00379601
12.7906	12.647	-0.000374566	0.00299936
12.7911	12.6475	0.000303912	0.00225098
12.7916	12.6479	0.000102983	0.00300977
12.7921	12.6484	0.000145395	0.00427161
12.7925	12.6489	-0.00144424	0.00375816
12.793	12.6494	-0.00040831	0.00280212
12.7935	12.6498	0.000267832	0.00221271
12.7939	12.6503	0.000238957	0.0031376
12.7944	12.6508	9.17113e-05	0.00427628
12.7949	12.6513	-0.0014363	0.00372562
12.7954	12.6517	-0.000336221	0.00287481
12.7958	12.6522	0.000427883	0.00229817
12.7963	12.6527	0.000152796	0.00300682
12.7968	12.6531	0.000133927	0.00422474
12.7972	12.6536	-0.00144704	0.00368638
12.7977	12.6541	-0.00030608	0.00276927
12.7982	12.6546	0.00039701	0.00226253
12.7987	12.655	2.82902e-05	0.00310179
12.7991	12.6555	0.000140597	0.00421696
12.7996	12.656	-0.00139976	0.00363753
12.8001	12.6565	-0.000387907	0.00281925
12.8006	12.6569	0.00045756	0.00231326
12.801	12.6574	0.00023209	0.00310958
12.8015	12.6579	-1.92578e-05	0.00428857
12.802	12.6584	-0.00134047	0.00367097
12.8024	12.6588	-0.000408845	0.00274747
12.8029	12.6593	0.000479836	0.00248828
12.8034	12.6598	5.39012e-05	0.00312203
12.8039	12.6602	-1.48527e-05	0.00431209
12.8043	12.6607	-0.00138955	0.00367613
12.8048	12.6612	-0.000401176	0.00259833
12.8053	12.6617	0.000462964	0.00245698
12.8057	12.6621	0.000115717	0.00311892
12.8062	12.6626	-1.31226e-05	0.00431676
12.8067	12.663	-0.00123257	0.003699
12.8072	12.6635	-0.000519547	0.00276583
12.8076	12.664	0.000569064	0.00231948
12.8081	12.6644	8.43098e-05	0.00312638
12.8086	12.6649	-9.46107e-05	0.00422039
12.8091	12.6654	-0.00129546	0.00364655
12.8095	12.6659	-0.000375636	0.00267429
12.81	12.6664	0.00074572	0.00240995
12.8105	12.6668	5.92339e-05	0.00310942
12.8109	12.6673	-0.000125554	0.00424498
12.8114	12.6678	-0.00121804	0.00365868
12.8119	12.6683	-0.000400908	0.0025731
12.8124	12.6687	0.000547056	0.0024501
12.8128	12.6692	-1.7189e-05	0.00318742
12.8133	12.6696	-2.9192e-05	0.00432594
12.8138	12.6701	-0.00116688	0.0036722
12.8142	12.6706	-0.000365631	0.00250943
12.8147	12.6711	0.000716577	0.00250057
12.8152	12.6715	-1.56552e-05	0.00324003
12.8157	12.672	-5.93331e-05	0.0043225
12.8161	12.6725	-0.00113467	0.00362335
12.8166	12.6729	-0.000385303	0.00235824
12.8171	12.6734	0.000761522	0.00247394
12.8176	12.6739	2.01574e-05	0.00315505
12.818	12.6743	-0.000327018	0.00432111
12.8185	12.6748	-0.00118602	0.00364048
12.819	12.6753	-0.00046433	0.00256392
12.8194	12.6758	0.000665962	0.0024632
12.8199	12.6763	-5.42679e-05	0.00331369
12.8204	12.6767	-0.000151165	0.00420917
12.8209	12.6772	-0.00104545	0.00359189
12.8213	12.6777	-0.000565026	0.0024442
12.8218	12.6782	0.000778197	0.00260456
12.8223	12.6786	-5.24666e-05	0.00322962
12.8227	12.6791	-0.000431585	0.00428702
12.8232	12.6796	-0.00102497	0.00350364
12.8237	12.68	-0.000495006	0.0024923
12.8242	12.6805	0.000821875	0.00263446
12.8246	12.681	6.89717e-05	0.00336335
12.8251	12.6815	-0.000390172	0.00414878
12.8256	12.6819	-0.000908937	0.00352371
12.8261	12.6824	-0.000471999	0.00241896
12.8265	12.6829	0.000791466	0.00249181
12.827	12.6833	-0.000103814	0.00333812
12.8275	12.6838	-0.000476868	0.00410765
12.8279	12.6843	-0.000968756	0.00351904
12.8284	12.6848	-0.000584234	0.00242535
12.8289	12.6852	0.000881426	0.0026044
12.8294	12.6857	-8.3874e-05	0.00338515
12.8298	12.6862	-0.000592171	0.00431676
12.8303	12.6867	-0.000971289	0.00345972
12.8308	12.6872	-0.000626449	0.00231063
12.8312	12.6876	0.00101513	0.00277115
12.8317	12.6881	2.85577e-05	0.00341801
12.8322	12.6886	-0.000407579	0.00434151
12.8327	12.689	-0.000936814	0.0035782
12.8331	12.6895	-0.00046433	0.00231562
12.8336	12.69	0.000932844	0.00278843
12.8341	12.6904	-3.91973e-06	0.0034398
12.8346	12.6909	-0.000553825	0.00424686
12.835	12.6914	-0.000953614	0.0036495
12.8355	12.6919	-0.000626913	0.00237086
12.836	12.6923	0.00096352	0.0027392
12.8364	12.6928	2.47588e-05	0.00350454
12.8369	12.6932	-0.000588835	0.00441468
12.8374	12.6937	-0.000803836	0.00341801
12.8379	12.6942	-0.000536686	0.00224524
12.8383	12.6947	0.0010118	0.00268535
12.8388	12.6951	-0.000152432	0.00344726
12.8393	12.6956	-0.000646853	0.00423269
12.8397	12.6961	-0.000838115	0.00348495
12.8402	12.6966	-0.000616177	0.00236184
12.8407	12.697	0.000970387	0.00267618
12.8412	12.6975	-9.02768e-05	0.00355641
12.8416	12.698	-0.000634315	0.00417787
12.8421	12.6985	-0.000743019	0.00355034
12.8426	12.6989	-0.000548956	0.00218157
12.8431	12.6994	0.000916971	0.00276009
12.8435	12.6998	-9.41469e-05	0.00355641
12.844	12.7003	-0.000722812	0.00414706
12.8445	12.7008	-0.000723079	0.00342842
12.8449	12.7013	-0.000562226	0.00229162
12.8454	12.7017	0.00100953	0.00277549
12.8459	12.7022	-4.75977e-05	0.00358599
12.8464	12.7027	-0.000771626	0.004077
12.8468	12.7031	-0.00061771	0.00349896
12.8473	12.7036	-0.000504744	0.00214715
12.8478	12.7041	0.000937178	0.00274903
12.8482	12.7046	-3.65935e-05	0.00362147
12.8487	12.7051	-0.000858322	0.00422474
12.8492	12.7055	-0.000680596	0.0033954
12.8497	12.706	-0.000688533	0.00218452
12.8501	12.7065	0.000930775	0.00283761
12.8506	12.707	-0.000103082	0.00367113
12.8511	12.7075	-0.000871056	0.0041659
12.8516	12.7079	-0.000587569	0.00338343
12.852	12.7084	-0.000602907	0.00230268
12.8525	12.7089	0.000904968	0.00289988
12.853	12.7093	1.11508e-05	0.00369449
12.8534	12.7098	-0.00100323	0.00406519
12.8539	12.7103	-0.000609042	0.00336228
12.8544	12.7107	-0.000526484	0.00217239
12.8549	12.7112	0.000890165	0.00273706
12.8553	12.7117	1.75169e-06	0.00367081
12.8558	12.7122	-0.00108406	0.00411174
12.8563	12.7126	-0.000471999	0.00340539
12.8567	12.7131	-0.000546888	0.00219418
12.8572	12.7136	0.000830079	0.00275853
12.8577	12.714	-4.37987e-05	0.00358255
12.8582	12.7145	-0.00114261	0.00402315
12.8586	12.715	-0.000491207	0.00322946
12.8591	12.7155	-0.000412911	0.00205857
12.8596	12.716	0.000788131	0.00283744
12.8601	12.7164	-7.42074e-05	0.00376143
12.8605	12.7169	-0.00104698	0.0040924
12.861	12.7174	-0.000554289	0.00336786
12.8615	12.7179	-0.000446655	0.00226859
12.8619	12.7183	0.000837748	0.00280614
12.8624	12.7188	-1.31226e-05	0.00376471
12.8629	12.7193	-0.00108046	0.0041768
12.8634	12.7197	-0.000475334	0.00324766
12.8638	12.7202	-0.000431585	0.00215617
12.8643	12.7207	0.000789398	0.00284802
12.8648	12.7211	-5.03978e-05	0.00383289
12.8652	12.7216	-0.00117709	0.00403545
12.8657	12.7221	-0.000300943	0.00328551
12.8662	12.7225	-0.000270071	0.00216428
12.8667	12.723	0.000723711	0.00293709
12.8671	12.7234	-4.96168e-08	0.0038964
12.8676	12.7239	-0.00109886	0.00400898
12.8681	12.7244	-0.000489869	0.00334918
12.8686	12.7249	-0.000330086	0.00223106
12.869	12.7253	0.000711976	0.00290176
12.8695	12.7258	0.000181475	0.00379536
12.87	12.7263	-0.00129852	0.00393441
12.8704	12.7268	-0.000467397	0.00318898
12.8709	12.7272	-0.000306347	0.00217035
12.8714	12.7277	0.000642687	0.00293553
12.8719	12.7282	5.97689e-05	0.00393065
12.8723	12.7287	-0.0013264	0.0040239
12.8728	12.7291	-0.000534617	0.00309884
12.8733	12.7296	-0.000203582	0.00216756
12.8737	12.7301	0.000637551	0.00295716
12.8742	12.7305	7.59095e-05	0.00389967
12.8747	12.731	-0.0012221	0.00395867
12.8752	12.7315	-0.000477135	0.00323274
12.8756	12.732	-0.000291741	0.00222656
12.8761	12.7324	0.000658489	0.00293225
12.8766	12.7329	-3.99286e-05	0.00404414
12.8771	12.7334	-0.00130033	0.00399153
12.8775	12.7338	-0.000354894	0.00311876
12.878	12.7343	-0.00017164	0.00228367
12.8785	12.7348	0.000580265	0.00283277
12.8789	12.7353	3.18928e-05	0.0040829
12.8794	12.7358	-0.00136348	0.00387509
12.8799	12.7362	-0.000327018	0.00301788
12.8804	12.7367	-5.01303e-05	0.00230531
12.8808	12.7372	0.000522248	0.00305418
12.8813	12.7377	8.02434e-05	0.0040443
12.8818	12.7382	-0.00129626	0.00394933
12.8822	12.7386	-0.000465863	0.00314743
12.8827	12.7391	-4.91315e-05	0.00227573
12.8832	12.7396	0.000423085	0.00291282
12.8837	12.74	0.000213685	0.00416869
12.8841	12.7405	-0.00136628	0.00386312
12.8846	12.741	-0.000254662	0.00310335
12.8851	12.7415	-2.38592e-05	0.00234456
12.8856	12.7419	0.00027864	0.00292603
12.886	12.7424	0.000151066	0.00430881
12.8865	12.7428	-0.00143837	0.00384674
12.887	12.7433	-0.000359228	0.00302255
12.8874	12.7438	1.16858e-05	0.00227793
12.8879	12.7443	0.000423281	0.00295577
12.8884	12.7447	0.000207014	0.00425293
12.8889	12.7452	-0.00148338	0.00390901
12.8893	12.7457	-0.000293274	0.0028994
12.8898	12.7462	-3.43284e-05	0.00227981
12.8903	12.7467	0.000356329	0.00292275
12.8907	12.7471	8.55761e-05	0.00423145
12.8912	12.7476	-0.0015322	0.00389066
12.8917	12.7481	-0.000404511	0.00294831
12.8922	12.7485	0.00012879	0.00224229
12.8926	12.749	0.000287575	0.00301633
12.8931	12.7495	0.000134658	0.00423703
12.8936	12.7499	-0.00129906	0.00363999
12.8941	12.7504	-0.000311948	0.00294176
12.8945	12.7509	0.000271969	0.00224148
12.895	12.7514	0.000202146	0.00296699
12.8955	12.7518	0.000236959	0.004155
12.8959	12.7523	-0.00145858	0.00381421
12.8964	12.7527	-0.000453593	0.00299002
12.8969	12.7532	0.000201147	0.00233087
12.8974	12.7537	0.000194476	0.00299469
12.8978	12.7541	0.000323584	0.00434602
12.8983	12.7546	-0.00145244	0.00381732
12.8988	12.7551	-0.000323487	0.00284056
