# 1304     AichiSR QXAFS
# Start     : 8.9544
# End       : 9.0544
# Dir       : Forward
# Points    : 300
# ScanTime  : 1.01549
# Date      : 13.04.23 22:35
# Ring Cur. : 0.9[mA]
12.7557	12.7558	0.000975791	0.00273534
12.7562	12.7553	-6.11344e-05	0.00362491
12.7566	12.7549	-0.000872857	0.00413567
12.7571	12.7544	-0.000503674	0.00334885
12.7576	12.7539	-0.000544088	0.00208595
12.7581	12.7534	0.000913903	0.00281023
12.7585	12.753	-8.34102e-05	0.00369776
12.759	12.7525	-0.000835047	0.00414673
12.7595	12.7521	-0.000618245	0.00323429
12.7599	12.7516	-0.000543553	0.00208971
12.7604	12.7511	0.000798868	0.00282966
12.7609	12.7506	-0.000102547	0.0037348
12.7614	12.7502	-0.000962086	0.00417959
12.7618	12.7497	-0.000526681	0.00333984
12.7623	12.7492	-0.000528482	0.00215649
12.7628	12.7488	0.000855351	0.00282531
12.7632	12.7483	-2.12554e-05	0.0036808
12.7637	12.7479	-0.00105005	0.00415919
12.7642	12.7474	-0.0004738	0.00328985
12.7647	12.7469	-0.000502675	0.00205046
12.7651	12.7464	0.000778393	0.00281098
12.7656	12.746	-2.33242e-05	0.00376889
12.7661	12.7455	-0.00112087	0.00402766
12.7666	12.745	-0.000492473	0.00325158
12.767	12.7445	-0.000498608	0.00213175
12.7675	12.744	0.000777395	0.00275665
12.768	12.7436	-1.17851e-05	0.0037085
12.7684	12.7431	-0.00112854	0.00391197
12.7689	12.7426	-0.000443124	0.00319553
12.7694	12.7422	-0.000438522	0.00223262
12.7699	12.7417	0.000624549	0.00285892
12.7703	12.7412	5.82351e-05	0.00385592
12.7708	12.7408	-0.00117862	0.00401005
12.7713	12.7403	-0.000510344	0.00312064
12.7717	12.7398	-0.000382235	0.00222188
12.7722	12.7393	0.000591269	0.00290283
12.7727	12.7389	8.91787e-05	0.00390794
12.7732	12.7384	-0.00118015	0.00398219
12.7736	12.7379	-0.000409112	0.00318554
12.7741	12.7375	-0.000232457	0.00207897
12.7746	12.737	0.000677162	0.00285989
12.7751	12.7365	4.38958e-05	0.00382698
12.7755	12.736	-0.00129292	0.00390606
12.776	12.7356	-0.000367432	0.00320578
12.7765	12.7351	-0.00028227	0.00213175
12.7769	12.7346	0.00059027	0.00289177
12.7774	12.7341	6.2569e-05	0.00393253
12.7779	12.7336	-0.00135148	0.0039
12.7784	12.7332	-0.000448724	0.00310072
12.7788	12.7327	-0.000211715	0.00213003
12.7793	12.7322	0.000566995	0.00273313
12.7798	12.7318	1.70898e-05	0.0039962
12.7802	12.7313	-0.00136348	0.00395105
12.7807	12.7308	-0.000445924	0.00317293
12.7812	12.7303	-0.000169036	0.00212847
12.7817	12.7299	0.000518377	0.00281909
12.7821	12.7294	0.000197812	0.00397113
12.7826	12.7289	-0.00141996	0.00391369
12.7831	12.7285	-0.000264667	0.00306024
12.7836	12.728	-3.12608e-05	0.00218779
12.784	12.7275	0.000528115	0.00278655
12.7845	12.727	4.2897e-05	0.00411543
12.785	12.7266	-0.00144044	0.00391229
12.7854	12.7261	-0.000314016	0.00299936
12.7859	12.7256	-4.19974e-05	0.00227015
12.7864	12.7251	0.000503842	0.00293709
12.7869	12.7247	0.000245895	0.00421712
12.7873	12.7242	-0.00151099	0.00378323
12.7878	12.7237	-0.000310414	0.0030087
12.7883	12.7232	5.75038e-05	0.00218887
12.7887	12.7228	0.000359664	0.00285785
12.7892	12.7223	0.000273503	0.00428063
12.7897	12.7219	-0.00151893	0.00383305
12.7902	12.7214	-0.000407044	0.00292791
12.7906	12.7209	0.000196278	0.00225769
12.7911	12.7204	0.000337656	0.00296323
12.7916	12.72	0.000142595	0.00415984
12.7921	12.7195	-0.00151893	0.00366351
12.7925	12.719	-0.000231458	0.00295003
12.793	12.7186	0.000140062	0.00227793
12.7935	12.7181	0.000211883	0.00290455
12.7939	12.7176	0.000196278	0.00416418
12.7944	12.7172	-0.00149692	0.00370104
12.7949	12.7167	-0.000298678	0.00286391
12.7954	12.7162	0.000239492	0.002284
12.7958	12.7157	0.000332055	0.00289177
12.7963	12.7153	0.000145662	0.00416885
12.7968	12.7148	-0.00143683	0.00377684
12.7972	12.7143	-0.000299677	0.00282483
12.7977	12.7138	0.000345057	0.00219214
12.7982	12.7133	0.000213417	0.00303082
12.7987	12.7129	0.000318251	0.00416542
12.7991	12.7124	-0.00156901	0.00365229
12.7996	12.712	-0.000330888	0.00282548
12.8001	12.7115	0.000337923	0.00242363
12.8006	12.711	0.000159734	0.00295888
12.801	12.7105	0.000231555	0.00433372
12.8015	12.7101	-0.00141943	0.00375504
12.802	12.7096	-0.000375369	0.00279278
12.8024	12.7091	0.000330985	0.00230391
12.8029	12.7087	0.000111918	0.0030618
12.8034	12.7082	0.000155667	0.0042562
12.8039	12.7077	-0.00148085	0.00370276
12.8043	12.7072	-0.000402977	0.00281785
12.8048	12.7068	0.000404412	0.00238536
12.8053	12.7063	0.000176873	0.00302132
12.8057	12.7058	0.000137262	0.0044841
12.8062	12.7053	-0.00134661	0.00368622
12.8067	12.7048	-0.000348224	0.00270715
12.8072	12.7043	0.000447091	0.00232013
12.8076	12.7039	0.000121389	0.00301993
12.8081	12.7034	1.62873e-05	0.0042095
12.8086	12.7029	-0.00130339	0.00361992
12.8091	12.7025	-0.000356963	0.00258137
12.8095	12.702	0.000492641	0.0023575
12.81	12.7015	2.90927e-05	0.00318308
12.8105	12.7011	8.991e-05	0.00426039
12.8109	12.7006	-0.00131026	0.00361041
12.8114	12.7001	-0.000348491	0.00252548
12.8119	12.6996	0.000629614	0.00239035
12.8124	12.6992	5.77001e-05	0.00312703
12.8128	12.6987	-1.87228e-05	0.00430135
12.8133	12.6983	-0.00119756	0.00363065
12.8138	12.6978	-0.000422917	0.00259505
12.8142	12.6973	0.000573666	0.00236184
12.8147	12.6968	-3.22596e-05	0.00326011
12.8152	12.6964	-0.000134561	0.00424981
12.8157	12.6959	-0.00120703	0.0036168
12.8161	12.6954	-0.000411181	0.00244387
12.8166	12.6949	0.000718307	0.00236012
12.8171	12.6944	-3.94648e-05	0.00332148
12.8176	12.694	-0.000228319	0.00428439
12.818	12.6935	-0.00118502	0.00360214
12.8185	12.693	-0.000524148	0.00249853
12.819	12.6926	0.000685366	0.00249713
12.8194	12.6921	5.18323e-05	0.00325265
12.8199	12.6917	-0.000177971	0.00424621
12.8204	12.6912	-0.00105131	0.00361074
12.8209	12.6907	-0.000431388	0.00257465
12.8213	12.6902	0.000755386	0.00243518
12.8218	12.6898	-0.000114086	0.0032751
12.8223	12.6893	-0.000222987	0.00432234
12.8227	12.6888	-0.00114361	0.00351233
12.8232	12.6884	-0.000559158	0.00242895
12.8237	12.6879	0.000791466	0.00252344
12.8242	12.6874	2.17883e-07	0.00322012
12.8246	12.6869	-0.000257729	0.00432562
12.8251	12.6865	-0.00101297	0.00351593
12.8256	12.686	-0.00055329	0.00228867
12.8261	12.6855	0.000823141	0.00248419
12.8265	12.685	-8.70128e-05	0.00344383
12.827	12.6846	-0.000394773	0.00420966
12.8275	12.6841	-0.000877726	0.00362582
12.8279	12.6836	-0.000541555	0.00228384
12.8284	12.6831	0.000920039	0.00258153
12.8289	12.6827	-0.000152164	0.00337098
12.8294	12.6822	-0.000433653	0.00414657
12.8298	12.6817	-0.000894331	0.00351314
12.8303	12.6813	-0.00051548	0.00226532
12.8308	12.6808	0.00108829	0.00262775
12.8312	12.6803	-0.000116619	0.00335417
12.8317	12.6798	-0.000466131	0.00430709
12.8322	12.6794	-0.000827646	0.00355485
12.8327	12.6789	-0.000710274	0.00232448
12.8331	12.6784	0.00101674	0.00263054
12.8336	12.678	-0.000107149	0.00343153
12.8341	12.6775	-0.000611575	0.00422474
12.8346	12.677	-0.000906334	0.00342407
12.835	12.6765	-0.000576565	0.00227015
12.8355	12.6761	0.000931578	0.00262775
12.836	12.6756	-0.000107684	0.00347496
12.8364	12.6751	-0.000561494	0.00414099
12.8369	12.6746	-0.000790299	0.00343014
12.8374	12.6741	-0.000663457	0.00217673
12.8379	12.6736	0.00092851	0.00262324
12.8383	12.6732	-0.000134757	0.00348307
12.8388	12.6727	-0.000714875	0.00413288
12.8393	12.6723	-0.00081764	0.00353257
12.8397	12.6718	-0.000578634	0.00214543
12.8402	12.6713	0.000953515	0.00269593
12.8407	12.6708	-3.71285e-05	0.00344759
12.8412	12.6704	-0.000741485	0.00416058
12.8416	12.6699	-0.000798236	0.00343325
12.8421	12.6694	-0.000677261	0.00229629
12.8426	12.669	0.000995463	0.00271944
12.8431	12.6685	-0.000112553	0.00372251
12.8435	12.6681	-0.000796435	0.00414673
12.844	12.6676	-0.000619512	0.00347947
12.8445	12.6671	-0.000583967	0.00221099
12.8449	12.6666	0.000923106	0.00268552
12.8454	12.6662	-2.61243e-05	0.00359952
12.8459	12.6657	-0.000813039	0.00411141
12.8464	12.6652	-0.000610844	0.003458
12.8468	12.6647	-0.000651989	0.00214624
12.8473	12.6642	0.000999065	0.00278467
12.8478	12.6638	2.11562e-05	0.00372374
12.8482	12.6633	-0.000872394	0.00418786
12.8487	12.6628	-0.000660924	0.00338064
12.8492	12.6624	-0.000534885	0.00217985
12.8497	12.6619	0.000883495	0.00275665
12.8501	12.6615	-9.6947e-05	0.00363205
12.8506	12.661	-0.00100937	0.00412199
12.8511	12.6605	-0.00062051	0.00334156
12.8516	12.66	-0.000561227	0.00213158
12.852	12.6596	0.000990594	0.00279262
12.8525	12.6591	-4.3995e-05	0.00379413
12.853	12.6586	-0.00108966	0.00406299
12.8534	12.6582	-0.000565561	0.00324363
12.8539	12.6577	-0.000556626	0.00206013
12.8544	12.6572	0.000783797	0.0028667
12.8549	12.6567	1.0152e-05	0.00378913
12.8553	12.6563	-0.00112087	0.00403373
12.8558	12.6558	-0.000532352	0.0032869
12.8563	12.6553	-0.000496807	0.00211585
12.8567	12.6548	0.000764589	0.0027931
12.8572	12.6543	-3.76635e-05	0.00380658
12.8577	12.6539	-0.00104545	0.00405209
12.8582	12.6534	-0.000643518	0.00326699
12.8586	12.6529	-0.000456661	0.00218173
12.8591	12.6525	0.000743383	0.00273625
12.8596	12.652	-1.31226e-05	0.003699
12.8601	12.6515	-0.00114721	0.00385173
12.8605	12.651	-0.000363633	0.00311817
12.861	12.6506	-0.000387104	0.00215682
12.8615	12.6501	0.0006869	0.00279262
12.8619	12.6496	-4.63313e-05	0.00392646
12.8624	12.6492	-0.00118602	0.00391868
12.8629	12.6487	-0.000310414	0.00320471
12.8634	12.6482	-0.000429587	0.00217502
12.8638	12.6477	0.000552924	0.00289972
12.8643	12.6473	0.00011932	0.00394794
12.8648	12.6468	-0.00125025	0.00389516
12.8652	12.6463	-0.000388103	0.00305697
12.8657	12.6458	-0.000307346	0.00218747
12.8662	12.6453	0.000623746	0.00288399
12.8667	12.6449	0.000118321	0.00393548
12.8671	12.6444	-0.00126658	0.00388206
12.8676	12.6439	-0.000365167	0.00314244
12.8681	12.6434	-0.000236524	0.0021165
12.8686	12.643	0.000569528	0.00286268
12.869	12.6425	-5.27341e-05	0.00390418
12.8695	12.6421	-0.00133127	0.00388099
12.87	12.6416	-0.000364097	0.0030087
12.8704	12.6411	-0.00029001	0.00211151
12.8709	12.6406	0.000468297	0.00286874
12.8714	12.6402	7.97084e-05	0.00396539
12.8719	12.6397	-0.00138549	0.00391385
12.8723	12.6392	-0.000472534	0.00296044
12.8728	12.6388	-4.11949e-05	0.00225957
12.8733	12.6383	0.000497707	0.00292586
12.8737	12.6378	0.000170738	0.00412199
12.8742	12.6374	-0.00147618	0.00384051
12.8747	12.6369	-0.000297341	0.00301928
12.8752	12.6364	-4.65104e-06	0.00220943
12.8756	12.6359	0.000409548	0.00285039
12.8761	12.6355	0.000119052	0.00408478
12.8766	12.635	-0.00135834	0.00374619
12.8771	12.6345	-0.000399642	0.00288415
12.8775	12.634	-7.44749e-05	0.00209266
12.878	12.6336	0.000294441	0.00292152
12.8785	12.6331	0.000212347	0.00411796
12.8789	12.6326	-0.00149178	0.00379429
12.8794	12.6322	-0.000562761	0.002839
12.8799	12.6317	2.72914e-05	0.00222623
12.8804	12.6312	0.00031365	0.00291824
12.8808	12.6308	0.000105516	0.00415763
12.8813	12.6303	-0.00145938	0.0038192
12.8818	12.6298	-0.000456393	0.00279901
12.8822	12.6293	0.000115253	0.00223745
12.8827	12.6289	0.00023209	0.00295282
12.8832	12.6284	0.000150799	0.00426989
12.8837	12.6279	-0.00150712	0.00371301
12.8841	12.6275	-0.000364365	0.00290504
12.8846	12.627	0.000216752	0.00229645
12.8851	12.6265	0.000259966	0.00301681
12.8856	12.626	6.03039e-05	0.00425932
12.886	12.6255	-0.00140896	0.00375225
12.8865	12.6251	-0.000269803	0.00279106
12.887	12.6246	0.000311581	0.00225147
12.8874	12.6241	0.000240758	0.00286703
12.8879	12.6236	0.000120854	0.00418598
12.8884	12.6232	-0.0013116	0.00375332
12.8889	12.6227	-0.000301746	0.00283015
12.8893	12.6222	0.000260698	0.00223262
12.8898	12.6218	0.000252494	0.00299764
12.8903	12.6213	0.000109386	0.0042998
12.8907	12.6208	-0.00138775	0.00370866
12.8912	12.6203	-0.00030608	0.00267708
12.8917	12.6199	0.000276036	0.00229506
12.8922	12.6194	0.000147196	0.00314367
12.8926	12.6189	8.65749e-05	0.00424449
12.8931	12.6185	-0.00148745	0.00358567
12.8936	12.618	-0.000450525	0.00266979
12.8941	12.6175	0.00041308	0.00227138
12.8945	12.617	0.000120854	0.00309171
12.895	12.6166	0.000104517	0.00421089
12.8955	12.6161	-0.00139109	0.00359034
12.8959	12.6156	-0.000480399	0.00262447
12.8964	12.6151	0.000376001	0.00240388
12.8969	12.6146	7.5642e-05	0.00312687
12.8974	12.6142	9.50465e-05	0.00426415
12.8978	12.6137	-0.00132893	0.00358411
12.8983	12.6132	-0.000383769	0.00261202
12.8988	12.6128	0.000645487	0.00228539
