# 1304     AichiSR QXAFS
# Start     : 8.9544
# End       : 9.0544
# Dir       : Forward
# Points    : 300
# ScanTime  : 1.01549
# Date      : 13.04.24 00:18
# Ring Cur. : 0.9[mA]
12.7557	12.7563	-0.000339824	0.00306459
12.7562	12.7558	-8.00751e-05	0.00230703
12.7566	12.7553	0.000555456	0.00298207
12.7571	12.7548	0.000151262	0.00403791
12.7576	12.7544	-0.00127479	0.00391073
12.7581	12.7539	-0.000359228	0.00302878
12.7585	12.7534	7.52882e-07	0.00228088
12.759	12.753	0.000434553	0.00299502
12.7595	12.7525	0.000187877	0.00409052
12.7599	12.752	-0.0014131	0.00386526
12.7604	12.7516	-0.000236256	0.00295561
12.7609	12.7511	9.63128e-05	0.00229769
12.7614	12.7506	0.000496708	0.002981
12.7618	12.7502	0.000202681	0.00415033
12.7623	12.7497	-0.00142583	0.0038578
12.7628	12.7492	-0.000195378	0.00297961
12.7632	12.7488	0.000111383	0.00228432
12.7637	12.7483	0.000430219	0.00295282
12.7642	12.7478	0.000204482	0.00413476
12.7647	12.7474	-0.00134147	0.00375161
12.7651	12.7469	-0.000301746	0.00301665
12.7656	12.7464	6.77054e-05	0.00226736
12.7661	12.7459	0.000266833	0.00283761
12.7666	12.7455	0.000213685	0.00421384
12.767	12.745	-0.00143097	0.0037711
12.7675	12.7445	-0.000306347	0.002922
12.768	12.744	0.000146465	0.00218887
12.7684	12.7436	0.000359396	0.0030051
12.7689	12.7431	0.000279371	0.00416139
12.7694	12.7426	-0.00139542	0.00362099
12.7699	12.7422	-0.000402442	0.00282827
12.7703	12.7417	0.000334588	0.00226859
12.7708	12.7412	0.000342257	0.00296183
12.7713	12.7407	0.000208548	0.00411543
12.7717	12.7403	-0.00139055	0.00373776
12.7722	12.7398	-0.000226589	0.00282032
12.7727	12.7393	0.000435552	0.00237446
12.7732	12.7389	0.000253564	0.00291094
12.7736	12.7384	0.000273503	0.00431177
12.7741	12.7379	-0.00135094	0.00376111
12.7746	12.7375	-0.000309147	0.00275214
12.7751	12.737	0.000367868	0.0022745
12.7755	12.7365	0.000174537	0.00301805
12.776	12.736	0.000172004	0.0041841
12.7765	12.7355	-0.00140002	0.00373341
12.7769	12.7351	-0.000208184	0.00276132
12.7774	12.7346	0.000485971	0.0023648
12.7779	12.7341	0.000119124	0.00301042
12.7784	12.7336	6.59041e-05	0.00431939
12.7788	12.7331	-0.00132027	0.0036663
12.7793	12.7327	-0.000378971	0.0027115
12.7798	12.7322	0.000553191	0.00238348
12.7802	12.7318	0.000159199	0.00304124
12.7807	12.7313	0.000160269	0.00429201
12.7812	12.7308	-0.0013348	0.00364622
12.7817	12.7303	-0.000451524	0.00261825
12.7821	12.7298	0.000498242	0.0024428
12.7826	12.7294	9.81141e-05	0.0031376
12.7831	12.7289	7.20393e-05	0.00434323
12.7836	12.7284	-0.00125711	0.00356387
12.784	12.728	-0.000339824	0.00264283
12.7845	12.7275	0.000635482	0.00237881
12.785	12.727	-1.23201e-05	0.00316858
12.7854	12.7266	3.77606e-05	0.00421728
12.7859	12.7261	-0.00115741	0.00361852
12.7864	12.7256	-0.000271266	0.00256687
12.7869	12.7251	0.000694301	0.00233087
12.7873	12.7246	4.51621e-05	0.00330403
12.7878	12.7242	3.80281e-05	0.00423081
12.7883	12.7237	-0.0012055	0.0036277
12.7887	12.7232	-0.000395308	0.00251721
12.7892	12.7228	0.000698635	0.00242256
12.7897	12.7223	2.2155e-06	0.0033182
12.7902	12.7219	-4.29962e-05	0.00422769
12.7906	12.7214	-0.00109886	0.00356854
12.7911	12.7209	-0.00039991	0.00251393
12.7916	12.7204	0.000764857	0.00242863
12.7921	12.72	-8.71746e-06	0.00315285
12.7925	12.7195	-0.000204314	0.00412354
12.793	12.719	-0.00107352	0.00367752
12.7935	12.7186	-0.000389904	0.00249869
12.7939	12.7181	0.000871688	0.00248983
12.7944	12.7176	6.49053e-05	0.00319193
12.7949	12.7172	-0.000106685	0.00426941
12.7954	12.7167	-0.000977424	0.00358534
12.7958	12.7162	-0.000501141	0.0024741
12.7963	12.7157	0.000751784	0.00254163
12.7968	12.7152	-6.88035e-05	0.00321529
12.7972	12.7148	-0.000301478	0.00433995
12.7977	12.7143	-0.00102704	0.00359501
12.7982	12.7138	-0.000505742	0.00247083
12.7987	12.7133	0.000888364	0.00246583
12.7991	12.7129	2.96277e-05	0.0033772
12.7996	12.7124	-0.000299142	0.00421245
12.8001	12.712	-0.000942146	0.00353085
12.8006	12.7115	-0.00045106	0.00245198
12.801	12.711	0.000949716	0.00251533
12.8015	12.7105	5.5435e-05	0.0033663
12.802	12.7101	-0.000328819	0.00431676
12.8024	12.7096	-0.00101984	0.00361197
12.8029	12.7091	-0.000452059	0.00235078
12.8034	12.7087	0.00100827	0.00260284
12.8039	12.7082	-4.78652e-05	0.00338048
12.8043	12.7077	-0.000428249	0.00426211
12.8048	12.7072	-0.00088206	0.00340416
12.8053	12.7068	-0.000600571	0.00237102
12.8057	12.7063	0.00100647	0.00269453
12.8062	12.7058	-1.99891e-05	0.00336851
12.8067	12.7053	-0.000476333	0.00425432
12.8072	12.7048	-0.000906601	0.00346702
12.8076	12.7043	-0.000666525	0.00225254
12.8081	12.7039	0.00106168	0.00266839
12.8086	12.7034	-1.69215e-05	0.00339154
12.8091	12.7029	-0.000337755	0.00411748
12.8095	12.7025	-0.000867257	0.00349381
12.81	12.702	-0.00064045	0.00225941
12.8105	12.7015	0.00100367	0.00256735
12.8109	12.7011	-8.56754e-05	0.00334483
12.8114	12.7006	-0.000576833	0.00420466
12.8119	12.7001	-0.000744749	0.00348028
12.8124	12.6996	-0.00053542	0.00229006
12.8128	12.6992	0.00103281	0.00264504
12.8133	12.6987	-0.000119954	0.00350487
12.8138	12.6983	-0.00053715	0.0042059
12.8142	12.6978	-0.00062051	0.00346938
12.8147	12.6973	-0.000557089	0.00220755
12.8152	12.6968	0.00104021	0.00272272
12.8157	12.6964	-6.80722e-05	0.00349069
12.8161	12.6959	-0.000728947	0.00416075
12.8166	12.6954	-0.000668593	0.0034303
12.8171	12.6949	-0.00070034	0.0022468
12.8176	12.6944	0.00101567	0.00265143
12.818	12.694	3.34267e-05	0.00349896
12.8185	12.6935	-0.000660657	0.00406331
12.819	12.693	-0.000603639	0.00354191
12.8194	12.6926	-0.000552559	0.00219075
12.8199	12.6921	0.000969388	0.00286424
12.8204	12.6917	-9.6947e-05	0.00370415
12.8209	12.6912	-0.000809704	0.00416263
12.8213	12.6907	-0.000620047	0.00339744
12.8218	12.6902	-0.000520278	0.00218903
12.8223	12.6898	0.000961719	0.00277689
12.8227	12.6893	-5.88693e-05	0.00362426
12.8232	12.6888	-0.00073815	0.00418926
12.8237	12.6884	-0.000570162	0.00335696
12.8242	12.6879	-0.000611575	0.00222312
12.8246	12.6874	0.000952249	0.00273346
12.8251	12.687	2.60251e-05	0.00375644
12.8256	12.6865	-0.00093421	0.00423473
12.8261	12.686	-0.000430853	0.00329297
12.8265	12.6855	-0.000505742	0.00211585
12.827	12.685	0.000868157	0.00288571
12.8275	12.6845	-3.09933e-05	0.00370522
12.8279	12.6841	-0.000960017	0.00406921
12.8284	12.6836	-0.000514678	0.00328363
12.8289	12.6831	-0.00037997	0.00214764
12.8294	12.6827	0.000943848	0.00277115
12.8298	12.6822	-5.64985e-06	0.00384706
12.8303	12.6817	-0.00102704	0.00408323
12.8308	12.6813	-0.000563028	0.00327166
12.8312	12.6808	-0.000416782	0.00216911
12.8317	12.6803	0.000863823	0.00279401
12.8322	12.6798	-4.65104e-06	0.00378151
12.8327	12.6794	-0.00103111	0.0039853
12.8331	12.6789	-0.00035056	0.0032329
12.8336	12.6784	-0.000342624	0.00209331
12.8341	12.678	0.000759524	0.0028127
12.8346	12.6775	3.92944e-05	0.00375676
12.835	12.677	-0.00104058	0.00401955
12.8355	12.6765	-0.0004794	0.00317824
12.836	12.676	-0.000259531	0.00213626
12.8364	12.6756	0.000695835	0.0027428
12.8369	12.6751	6.15702e-05	0.00391664
12.8374	12.6746	-0.00115561	0.00403947
12.8379	12.6741	-0.00046713	0.00318791
12.8383	12.6736	-0.000305349	0.00211929
12.8388	12.6732	0.000699438	0.00277893
12.8393	12.6727	0.00011652	0.00379118
12.8397	12.6723	-0.00118682	0.00391959
12.8402	12.6718	-0.000346958	0.00314383
12.8407	12.6713	-0.000374834	0.00219058
12.8412	12.6709	0.000734983	0.00287546
12.8416	12.6704	6.53691e-05	0.00389812
12.8421	12.6699	-0.00122617	0.00390467
12.8426	12.6694	-0.000466131	0.00320906
12.8431	12.669	-0.000128889	0.00223246
12.8435	12.6685	0.000736249	0.00286112
12.844	12.6681	-5.77993e-05	0.00397457
12.8445	12.6676	-0.00114768	0.00398702
12.8449	12.6671	-0.000301478	0.00310556
12.8454	12.6666	-0.000243925	0.00211913
12.8459	12.6662	0.000600008	0.00297649
12.8464	12.6657	0.000102716	0.00408602
12.8468	12.6652	-0.00125278	0.0037952
12.8473	12.6647	-0.000318083	0.00308934
12.8478	12.6642	-7.26736e-05	0.00219263
12.8482	12.6638	0.000471899	0.00286998
12.8487	12.6633	0.000199345	0.00417213
12.8492	12.6628	-0.00137088	0.00395089
12.8497	12.6624	-0.000283608	0.00311769
12.8501	12.6619	-9.82133e-05	0.00215478
12.8506	12.6615	0.000530184	0.00304
12.8511	12.661	0.000208013	0.0041346
12.8516	12.6605	-0.00137268	0.00384395
12.852	12.66	-0.000300676	0.00289349
12.8525	12.6596	2.7505e-06	0.00226843
12.853	12.6591	0.000439154	0.00284539
12.8534	12.6586	0.000244628	0.00411018
12.8539	12.6582	-0.00139696	0.00374554
12.8544	12.6577	-0.000379703	0.00310539
12.8549	12.6572	0.000104517	0.00223106
12.8553	12.6567	0.000463963	0.00291561
12.8558	12.6563	0.000180405	0.00416885
12.8563	12.6558	-0.00137088	0.00372734
12.8567	12.6553	-0.000358497	0.00295126
12.8572	12.6548	0.000140793	0.00219976
12.8577	12.6543	0.000478766	0.00298691
12.8582	12.6539	0.000280637	0.00425293
12.8586	12.6534	-0.00143223	0.00377061
12.8591	12.6529	-0.000250863	0.00305869
12.8596	12.6525	7.97084e-05	0.00230735
12.8601	12.652	0.000334588	0.00291545
12.8605	12.6515	0.000148462	0.00421245
12.861	12.6511	-0.00141536	0.00376438
12.8615	12.6506	-0.000264132	0.00290595
12.8619	12.6501	0.00024923	0.00224851
12.8624	12.6496	0.000239759	0.00294659
12.8629	12.6492	0.000237691	0.00420933
12.8634	12.6487	-0.00144424	0.00376267
12.8638	12.6482	-0.000412715	0.00282204
12.8643	12.6477	0.000354527	0.00230252
12.8648	12.6473	0.000220355	0.00297633
12.8652	12.6468	0.000349659	0.00435101
12.8657	12.6463	-0.0013328	0.00374758
12.8662	12.6458	-0.000287942	0.00279697
12.8667	12.6453	0.000401879	0.00231981
12.8671	12.6449	0.00016487	0.00303796
12.8676	12.6444	0.0002643	0.00430619
12.8681	12.6439	-0.00132253	0.00368982
12.8686	12.6434	-0.000249329	0.00275214
12.869	12.643	0.000346395	0.00229629
12.8695	12.6425	0.000143665	0.00297601
12.87	12.6421	0.000290108	0.0043538
12.8704	12.6416	-0.00134227	0.00371768
12.8709	12.6411	-0.000322684	0.00267585
12.8714	12.6407	0.000502576	0.00227949
12.8719	12.6402	0.00012599	0.00306427
12.8723	12.6397	0.000121121	0.00428718
12.8728	12.6392	-0.00133867	0.00361385
12.8733	12.6388	-0.000319349	0.00269019
12.8737	12.6383	0.000497974	0.00234923
12.8742	12.6379	0.000106586	0.00325142
12.8747	12.6374	7.0238e-05	0.00428186
12.8752	12.6369	-0.00125658	0.00363377
12.8756	12.6364	-0.000383769	0.00267929
12.8761	12.636	0.000555724	0.00230923
12.8766	12.6355	9.63128e-05	0.00311941
12.8771	12.635	7.76396e-05	0.00425883
12.8775	12.6345	-0.00118322	0.00347513
12.878	12.634	-0.000226786	0.0026525
12.8785	12.6336	0.000578	0.00235996
12.8789	12.6331	8.68424e-05	0.00307237
12.8794	12.6326	-7.36724e-05	0.00419548
12.8799	12.6322	-0.0011068	0.00361369
12.8804	12.6317	-0.000378704	0.00256515
12.8808	12.6312	0.000710175	0.00232136
12.8813	12.6308	4.13632e-05	0.00318947
12.8818	12.6303	-2.4323e-05	0.00420917
12.8822	12.6298	-0.00108686	0.00357772
12.8827	12.6293	-0.00035056	0.00261948
12.8832	12.6289	0.000661824	0.00244092
12.8837	12.6284	-4.19974e-05	0.00313326
12.8841	12.6279	-2.9192e-05	0.00431832
12.8846	12.6275	-0.00118069	0.00362598
12.8851	12.627	-0.000326287	0.00256113
12.8856	12.6265	0.000694569	0.00243486
12.886	12.626	-1.99891e-05	0.00330263
12.8865	12.6256	-0.000164702	0.00421384
12.887	12.6251	-0.00107712	0.00354642
12.8874	12.6246	-0.000462796	0.00245837
12.8879	12.6241	0.000603807	0.0025105
12.8884	12.6236	-8.80117e-05	0.00325732
12.8889	12.6232	-0.000201513	0.00429185
12.8893	12.6227	-0.0010007	0.0034893
12.8898	12.6222	-0.000465863	0.0024006
12.8903	12.6218	0.000847682	0.00245633
12.8907	12.6213	-2.05241e-05	0.00328985
12.8912	12.6208	-0.000265398	0.00424654
12.8917	12.6203	-0.00102831	0.00349397
12.8922	12.6199	-0.000458194	0.00248001
12.8926	12.6194	0.000815205	0.00254056
12.8931	12.6189	3.06265e-05	0.00326371
12.8936	12.6185	-0.000390172	0.00423908
12.8941	12.618	-0.000909669	0.00355158
12.8945	12.6175	-0.000422917	0.00230891
12.895	12.617	0.000990861	0.00257949
12.8955	12.6166	7.63733e-05	0.00338343
12.8959	12.6161	-0.000275404	0.00417927
12.8964	12.6156	-0.000854987	0.00359017
12.8969	12.6151	-0.000426983	0.00246288
12.8974	12.6147	0.000871759	0.00262308
12.8978	12.6142	-1.28551e-05	0.00339712
12.8983	12.6137	-0.000386373	0.00432594
12.8988	12.6132	-0.000805905	0.003399
