# 1304     AichiSR QXAFS
# Start     : 8.9544
# End       : 9.0544
# Dir       : Forward
# Points    : 300
# ScanTime  : 1.01549
# Date      : 13.04.23 23:22
# Ring Cur. : 0.9[mA]
12.7557	12.7562	-0.000665793	0.00424547
12.7562	12.7557	-0.000621045	0.00345456
12.7566	12.7552	-0.000556893	0.00219886
12.7571	12.7548	0.00104021	0.00262308
12.7576	12.7543	-6.54684e-05	0.00374742
12.7581	12.7538	-0.000704139	0.00413117
12.7585	12.7533	-0.000662458	0.00345226
12.759	12.7529	-0.000467397	0.00220894
12.7595	12.7524	0.000992395	0.00270527
12.7599	12.752	-4.3995e-05	0.00377496
12.7604	12.7515	-0.000866455	0.00405085
12.7609	12.751	-0.000533083	0.00340818
12.7614	12.7505	-0.000615178	0.00219788
12.7618	12.7501	0.000997264	0.00271789
12.7623	12.7496	-2.12554e-05	0.00369449
12.7628	12.7492	-0.000762423	0.00415968
12.7632	12.7487	-0.000454592	0.00333098
12.7637	12.7482	-0.000547958	0.00209529
12.7642	12.7478	0.000999797	0.00273346
12.7647	12.7473	-0.000118955	0.00374522
12.7651	12.7468	-0.0007987	0.0040384
12.7656	12.7463	-0.00051828	0.00343293
12.7661	12.7459	-0.000500873	0.00210152
12.7666	12.7454	0.000851285	0.00280507
12.767	12.7449	-0.000151165	0.00380298
12.7675	12.7444	-0.00105131	0.00417164
12.768	12.7439	-0.000419582	0.00327026
12.7684	12.7435	-0.000450793	0.00217362
12.7689	12.743	0.000884226	0.0027691
12.7694	12.7425	-4.01961e-05	0.00386886
12.7699	12.7421	-0.00110093	0.00393581
12.7703	12.7416	-0.000441857	0.00338998
12.7708	12.7411	-0.000361564	0.00215649
12.7713	12.7407	0.000897032	0.00272567
12.7717	12.7402	-7.7275e-05	0.0037457
12.7722	12.7397	-0.00113287	0.00402267
12.7727	12.7392	-0.00037997	0.0032483
12.7732	12.7388	-0.000379435	0.00209701
12.7736	12.7383	0.000805538	0.00275074
12.7741	12.7378	2.57576e-05	0.00380207
12.7746	12.7374	-0.00107225	0.00402997
12.7751	12.7369	-0.000293809	0.00326978
12.7755	12.7364	-0.000354627	0.00213953
12.776	12.7359	0.0006925	0.00283916
12.7765	12.7355	-3.37934e-05	0.00391868
12.7769	12.735	-0.0012065	0.00403979
12.7774	12.7345	-0.000423184	0.00318291
12.7779	12.734	-0.000316014	0.00218141
12.7784	12.7335	0.000687167	0.00276927
12.7788	12.7331	8.76449e-05	0.0038614
12.7793	12.7326	-0.00115354	0.00406487
12.7798	12.7321	-0.000292008	0.00323601
12.7802	12.7317	-0.000214319	0.00220041
12.7807	12.7312	0.000778661	0.00294782
12.7812	12.7307	0.000241561	0.00403808
12.7817	12.7302	-0.00126885	0.00399792
12.7821	12.7298	-0.000376903	0.00315473
12.7826	12.7293	-7.18711e-05	0.00222312
12.7831	12.7288	0.000660825	0.00297118
12.7836	12.7284	5.12973e-05	0.00414083
12.784	12.7279	-0.00136908	0.00402251
12.7845	12.7274	-0.000304279	0.00309057
12.785	12.7269	-3.86623e-05	0.00225318
12.7854	12.7265	0.00054859	0.00277501
12.7859	12.726	0.000106051	0.004096
12.7864	12.7255	-0.0013264	0.00381888
12.7869	12.725	-0.000359032	0.00295249
12.7873	12.7246	9.45115e-05	0.00227842
12.7878	12.7241	0.000579997	0.00301493
12.7883	12.7236	0.000197544	0.00410658
12.7887	12.7232	-0.00135915	0.00383289
12.7892	12.7227	-0.000320152	0.00313809
12.7897	12.7222	3.98294e-05	0.00231342
12.7902	12.7218	0.000530184	0.00292463
12.7906	12.7213	0.000248427	0.00417943
12.7911	12.7208	-0.00135528	0.00389967
12.7916	12.7203	-0.0002672	0.00309605
12.7921	12.7199	4.41633e-05	0.00234209
12.7925	12.7194	0.000493105	0.0029715
12.793	12.719	0.00024256	0.00424965
12.7935	12.7185	-0.00140256	0.0039154
12.7939	12.718	-0.000215585	0.00305369
12.7944	12.7176	0.000250496	0.00221754
12.7949	12.7171	0.000463695	0.00298396
12.7954	12.7166	0.000201147	0.00431987
12.7958	12.7161	-0.00131846	0.00387804
12.7963	12.7156	-0.000261599	0.00312531
12.7968	12.7152	0.000309316	0.00214748
12.7972	12.7147	0.00035146	0.00295609
12.7977	12.7142	0.000244093	0.00419033
12.7982	12.7137	-0.00146651	0.00372841
12.7987	12.7133	-0.000280469	0.00301214
12.7991	12.7128	0.000224421	0.00220787
12.7996	12.7123	0.000432555	0.00305557
12.8001	12.7119	0.000303644	0.00422474
12.8006	12.7114	-0.00151199	0.00385345
12.801	12.7109	-0.000266932	0.00309761
12.8015	12.7104	0.000375537	0.00238332
12.802	12.71	0.000348392	0.00299362
12.8024	12.7095	0.000235158	0.00429759
12.8029	12.709	-0.00143584	0.00384223
12.8034	12.7086	-0.000289939	0.00295126
12.8039	12.7081	0.000530987	0.0023466
12.8043	12.7076	0.000224421	0.00295593
12.8048	12.7071	0.000286505	0.00434167
12.8053	12.7067	-0.00138649	0.00374554
12.8057	12.7062	-0.000226054	0.00286686
12.8062	12.7057	0.000310315	0.00237586
12.8067	12.7052	0.000256631	0.00307705
12.8072	12.7047	0.000290375	0.00427505
12.8076	12.7043	-0.00139776	0.0037457
12.8081	12.7038	-0.000330086	0.00279229
12.8086	12.7033	0.000507908	0.00237102
12.8091	12.7028	0.000215218	0.00316874
12.8095	12.7024	0.00011652	0.0043035
12.81	12.7019	-0.00130646	0.00376143
12.8105	12.7014	-0.000278204	0.00294143
12.8109	12.701	0.000504109	0.00243298
12.8114	12.7005	0.000158735	0.00311629
12.8119	12.7	0.000258165	0.00439928
12.8124	12.6996	-0.00133534	0.00380986
12.8128	12.6991	-0.000342624	0.00265701
12.8133	12.6986	0.000554457	0.00238036
12.8138	12.6982	7.17718e-05	0.00316546
12.8142	12.6977	-9.25246e-06	0.00432143
12.8147	12.6972	-0.00130773	0.00383412
12.8152	12.6967	-0.000327018	0.00284228
12.8157	12.6963	0.000549125	0.00245493
12.8161	12.6958	0.000167938	0.00333533
12.8166	12.6953	4.72309e-05	0.00435413
12.8171	12.6948	-0.00115588	0.00372095
12.8176	12.6944	-0.000351827	0.00269314
12.818	12.6939	0.000637016	0.00252344
12.8185	12.6934	8.30435e-05	0.00313342
12.819	12.693	5.39012e-05	0.00426506
12.8194	12.6925	-0.00103011	0.00378012
12.8199	12.692	-0.000390439	0.00273501
12.8204	12.6916	0.000673096	0.00247501
12.8209	12.6911	-3.38473e-06	0.00319693
12.8213	12.6906	-0.000119954	0.00425309
12.8218	12.6901	-0.00112087	0.00357928
12.8223	12.6897	-0.000336756	0.00267618
12.8227	12.6892	0.000676895	0.00244715
12.8232	12.6888	0.000131323	0.00317078
12.8237	12.6883	-9.87483e-05	0.00433684
12.8242	12.6878	-0.00111267	0.0037974
12.8246	12.6873	-0.000398376	0.00251007
12.8251	12.6869	0.000829009	0.00257031
12.8256	12.6864	6.05002e-05	0.00336851
12.8261	12.6859	-0.000150363	0.00427145
12.8265	12.6854	-0.000993029	0.00374012
12.827	12.6849	-0.000453593	0.00249353
12.8275	12.6845	0.000915437	0.00250073
12.8279	12.684	-1.92578e-05	0.00332255
12.8284	12.6835	-0.000204849	0.0042962
12.8289	12.683	-0.00107559	0.00372734
12.8294	12.6826	-0.00055329	0.00259661
12.8298	12.6821	0.00091237	0.00258309
12.8303	12.6817	-1.7724e-05	0.00334902
12.8308	12.6812	-0.000286943	0.00441296
12.8312	12.6807	-0.000940612	0.00367285
12.8317	12.6802	-0.000487872	0.00249074
12.8322	12.6797	0.000820341	0.00259989
12.8327	12.6793	-9.25246e-06	0.00328895
12.8331	12.6788	-0.00027107	0.00427596
12.8336	12.6783	-0.000922207	0.00369916
12.8341	12.6779	-0.000510076	0.00243019
12.8346	12.6774	0.000837481	0.00259522
12.835	12.6769	-0.000104349	0.00343685
12.8355	12.6764	-0.000405314	0.00426587
12.836	12.676	-0.00084425	0.00372047
12.8364	12.6755	-0.000436989	0.00240339
12.8369	12.675	0.00100033	0.00280212
12.8374	12.6745	-8.13414e-05	0.00345849
12.8379	12.674	-0.000426252	0.00430849
12.8383	12.6736	-0.000839114	0.00353134
12.8388	12.6731	-0.00046993	0.00236807
12.8393	12.6726	0.00110616	0.00272674
12.8397	12.6722	5.51675e-05	0.00354191
12.8402	12.6717	-0.000587302	0.00422302
12.8407	12.6712	-0.000684199	0.00362131
12.8412	12.6708	-0.000639184	0.00225114
12.8416	12.6703	0.00102614	0.00273346
12.8421	12.6698	-2.66593e-05	0.00351561
12.8426	12.6694	-0.000519547	0.00428718
12.8431	12.6689	-0.000774694	0.00361664
12.8435	12.6684	-0.000468931	0.00225893
12.844	12.668	0.00101487	0.00278639
12.8445	12.6675	-0.000134828	0.00344759
12.8449	12.667	-0.000561227	0.00420155
12.8454	12.6665	-0.000634315	0.00348619
12.8459	12.6661	-0.000656591	0.00231202
12.8464	12.6656	0.00106602	0.0026933
12.8468	12.6651	-3.32584e-05	0.00345489
12.8473	12.6646	-0.000690602	0.00415312
12.8478	12.6642	-0.000635652	0.00354969
12.8482	12.6637	-0.000796435	0.00216477
12.8487	12.6632	0.00103768	0.00271961
12.8492	12.6628	-0.000157764	0.00364794
12.8497	12.6623	-0.000776763	0.00402471
12.8501	12.6618	-0.000594971	0.00341473
12.8506	12.6614	-0.000547423	0.00212396
12.8511	12.6609	0.00101567	0.00271526
12.8516	12.6604	-0.00010895	0.00352199
12.852	12.6599	-0.000809971	0.00408978
12.8525	12.6595	-0.000600838	0.00337253
12.853	12.659	-0.000550758	0.00223869
12.8534	12.6585	0.000914171	0.0027968
12.8539	12.6581	-3.25271e-05	0.00365245
12.8544	12.6576	-0.000885663	0.00412263
12.8549	12.6571	-0.000563492	0.0033736
12.8553	12.6566	-0.000576565	0.00211339
12.8558	12.6562	0.000931043	0.00268208
12.8563	12.6557	-9.79458e-05	0.00361353
12.8567	12.6552	-0.000923206	0.00411887
12.8572	12.6547	-0.000484002	0.00326683
12.8577	12.6542	-0.000536954	0.00216863
12.8582	12.6538	0.000826744	0.00271773
12.8586	12.6533	-2.71232e-05	0.00370555
12.8591	12.6528	-0.000910204	0.00403824
12.8596	12.6524	-0.000510076	0.0031535
12.8601	12.6519	-0.000545158	0.0021996
12.8605	12.6514	0.000898298	0.0028127
12.861	12.651	-0.000100282	0.00368031
12.8615	12.6505	-0.00097869	0.00406921
12.8619	12.65	-0.000423916	0.00337302
12.8624	12.6495	-0.000470197	0.00212069
12.8629	12.6491	0.000903702	0.0027968
12.8634	12.6486	-8.54079e-05	0.00373964
12.8638	12.6481	-0.00117222	0.00402701
12.8643	12.6477	-0.000590637	0.0031812
12.8648	12.6472	-0.000415515	0.0021311
12.8652	12.6467	0.000760255	0.00279278
12.8657	12.6462	-6.32032e-05	0.00373636
12.8662	12.6457	-0.00114921	0.00403872
12.8667	12.6452	-0.000475869	0.00316128
12.8671	12.6448	-0.000305545	0.00214732
12.8676	12.6443	0.000779463	0.00295577
12.8681	12.6438	-6.09381e-05	0.0038564
12.8686	12.6434	-0.0011196	0.004013
12.869	12.6429	-0.000463063	0.00328551
12.8695	12.6424	-0.000347225	0.00224401
12.87	12.642	0.000846416	0.00285506
12.8704	12.6415	1.34872e-05	0.00397924
12.8709	12.641	-0.00115688	0.0039649
12.8714	12.6406	-0.000375369	0.00320503
12.8719	12.6401	-0.000176973	0.00218387
12.8723	12.6396	0.000647752	0.00280057
12.8728	12.6392	2.11562e-05	0.00401161
12.8733	12.6387	-0.00128832	0.00389624
12.8737	12.6382	-0.000456393	0.00322307
12.8742	12.6378	-0.000192043	0.00227745
12.8747	12.6373	0.00055979	0.00283015
12.8752	12.6368	2.50263e-05	0.00401349
12.8756	12.6363	-0.00127245	0.00381625
12.8761	12.6359	-0.00035056	0.00310507
12.8766	12.6354	-9.6412e-05	0.00220353
12.8771	12.6349	0.000569796	0.00278483
12.8775	12.6344	0.000161	0.00398219
12.878	12.634	-0.00126018	0.00390794
12.8785	12.6335	-0.00034776	0.00311597
12.8789	12.633	-9.94796e-05	0.00223418
12.8794	12.6326	0.000540386	0.00294691
12.8799	12.6321	0.000194013	0.00408118
12.8804	12.6316	-0.00145317	0.00379257
12.8808	12.6311	-0.000368966	0.00316439
12.8813	12.6307	-8.31427e-05	0.00230596
12.8818	12.6302	0.000539119	0.00292914
12.8822	12.6297	0.000135193	0.00408151
12.8827	12.6293	-0.00140743	0.00391852
12.8832	12.6288	-0.000369233	0.00301665
12.8837	12.6283	4.10957e-05	0.00234021
12.8841	12.6279	0.000574932	0.00282687
12.8846	12.6274	0.000132125	0.00415608
12.8851	12.6269	-0.00149845	0.00378028
12.8856	12.6264	-0.000265933	0.00294519
12.886	12.6259	9.96479e-05	0.00227777
12.8865	12.6255	0.00048417	0.00296388
12.887	12.625	8.12422e-05	0.00415608
12.8874	12.6245	-0.00140056	0.00389795
12.8879	12.624	-0.000332422	0.00306443
12.8884	12.6235	0.000124724	0.00230891
12.8889	12.6231	0.000388539	0.00288367
12.8893	12.6226	0.000175072	0.00426194
12.8898	12.6221	-0.00146344	0.00379209
12.8903	12.6217	-0.000289939	0.00300231
12.8907	12.6212	0.000152065	0.0023335
12.8912	12.6207	0.000389538	0.00302288
12.8917	12.6202	0.000188074	0.00421589
12.8922	12.6198	-0.00138695	0.00376906
12.8926	12.6193	-0.00033549	0.00310212
12.8931	12.6188	0.000218821	0.0023103
12.8936	12.6184	0.000291106	0.00307377
12.8941	12.6179	0.000212151	0.00434586
12.8945	12.6174	-0.00139849	0.00365106
12.895	12.6169	-0.000210716	0.00278827
12.8955	12.6165	0.000337923	0.00240995
12.8959	12.616	0.000201682	0.00298986
12.8964	12.6155	0.000209547	0.00422646
12.8969	12.615	-0.00138469	0.00365712
12.8974	12.6146	-0.000339824	0.00284588
12.8978	12.6141	0.00022929	0.00237537
12.8983	12.6136	0.00024363	0.00301821
12.8988	12.6132	0.000192943	0.00425948
