# 1304     AichiSR QXAFS
# Start     : 8.9544
# End       : 9.0544
# Dir       : Forward
# Points    : 300
# ScanTime  : 1.01549
# Date      : 13.04.23 23:32
# Ring Cur. : 1[mA]
12.7557	12.7562	-4.42625e-05	0.00387943
12.7562	12.7557	-0.0011178	0.00396367
12.7566	12.7553	-0.000467932	0.00319832
12.7571	12.7548	-0.000500338	0.00226097
12.7576	12.7543	0.000662359	0.00278902
12.7581	12.7538	-3.50597e-05	0.00389082
12.7585	12.7534	-0.00116662	0.00393237
12.759	12.7529	-0.000560959	0.00331386
12.7595	12.7525	-0.000360762	0.00225007
12.7599	12.752	0.000674094	0.00278467
12.7604	12.7515	6.28365e-05	0.00397097
12.7609	12.7511	-0.00118989	0.00404323
12.7614	12.7506	-0.000453593	0.00317078
12.7618	12.7501	-0.000331887	0.00218312
12.7623	12.7496	0.000686365	0.00286375
12.7628	12.7492	-8.52115e-06	0.00391417
12.7632	12.7487	-0.00120803	0.00394155
12.7637	12.7483	-0.000320687	0.00318308
12.7642	12.7478	-0.000305081	0.00218903
12.7647	12.7473	0.000662092	0.00287358
12.7651	12.7468	0.000124189	0.00392754
12.7656	12.7464	-0.00130439	0.0039109
12.7661	12.7459	-0.000336221	0.00316423
12.7666	12.7454	-0.000163168	0.00224835
12.767	12.7449	0.000582601	0.00293988
12.7675	12.7444	0.000186076	0.00411887
12.768	12.744	-0.00131413	0.00380658
12.7684	12.7435	-0.000372765	0.00315178
12.7689	12.743	-8.95455e-05	0.00216772
12.7694	12.7426	0.000427419	0.00293086
12.7699	12.7421	8.76449e-05	0.00410175
12.7703	12.7416	-0.00151533	0.00383305
12.7708	12.7412	-0.000484002	0.00298379
12.7713	12.7407	-9.51996e-06	0.00215773
12.7717	12.7402	0.000485704	0.00299378
12.7722	12.7397	4.18982e-05	0.00424842
12.7727	12.7393	-0.00135581	0.00380175
12.7732	12.7388	-0.000231922	0.00299781
12.7736	12.7384	2.93602e-05	0.0021515
12.7741	12.7379	0.000417949	0.00281146
12.7746	12.7374	0.000147463	0.00412231
12.7751	12.7369	-0.00149385	0.00390295
12.7755	12.7364	-0.000415248	0.00302288
12.776	12.736	0.000116787	0.00223573
12.7765	12.7355	0.000387005	0.00299437
12.7769	12.735	7.84421e-05	0.00418442
12.7774	12.7345	-0.00158182	0.00369325
12.7779	12.734	-0.000388905	0.00290799
12.7784	12.7336	3.2855e-06	0.00220336
12.7788	12.7331	0.000231555	0.00293864
12.7793	12.7326	0.000302646	0.00414583
12.7798	12.7322	-0.00164597	0.00375488
12.7802	12.7317	-0.000521883	0.00294987
12.7807	12.7312	0.000211348	0.00241306
12.7812	12.7307	0.000177337	0.00302599
12.7817	12.7302	0.000191409	0.00431037
12.7821	12.7298	-0.00147645	0.0037253
12.7826	12.7293	-0.000275671	0.00279508
12.7831	12.7289	0.000236157	0.00219337
12.7836	12.7284	0.000209083	0.00295888
12.784	12.7279	0.000216485	0.0041528
12.7845	12.7274	-0.00148312	0.00376095
12.785	12.727	-0.000485	0.00281909
12.7854	12.7265	0.000448625	0.00226532
12.7859	12.726	0.000141328	0.0029125
12.7864	12.7255	0.000113452	0.00435831
12.7869	12.7251	-0.00143937	0.00381716
12.7873	12.7246	-0.000393239	0.00276116
12.7878	12.7241	0.000367333	0.0023648
12.7883	12.7236	1.1222e-05	0.00304188
12.7887	12.7232	0.00017814	0.00417975
12.7892	12.7227	-0.00152786	0.0036699
12.7897	12.7223	-0.000454128	0.00267413
12.7902	12.7218	0.000338191	0.00240667
12.7906	12.7213	6.07677e-05	0.00311908
12.7911	12.7209	0.000124456	0.00428374
12.7916	12.7204	-0.00145731	0.00358599
12.7921	12.7199	-0.000366166	0.00265143
12.7925	12.7194	0.000485169	0.00237135
12.793	12.719	2.06212e-05	0.00304763
12.7935	12.7185	4.98347e-05	0.00433372
12.7939	12.7181	-0.00126505	0.00359468
12.7944	12.7176	-0.000377901	0.00271477
12.7949	12.7171	0.000445557	0.00243346
12.7954	12.7166	-3.17116e-07	0.00307565
12.7958	12.7162	4.2897e-05	0.00424063
12.7963	12.7157	-0.00136501	0.00376299
12.7968	12.7152	-0.000354627	0.00275992
12.7972	12.7147	0.000540653	0.00249917
12.7977	12.7142	-5.18604e-06	0.00320659
12.7982	12.7138	-0.000146029	0.00432127
12.7987	12.7133	-0.00119423	0.00358722
12.7991	12.7128	-0.000472801	0.00270855
12.7996	12.7124	0.000521249	0.0024165
12.8001	12.7119	5.08681e-06	0.00325158
12.8006	12.7114	-6.57359e-05	0.00439707
12.801	12.7109	-0.00114281	0.00364155
12.8015	12.7105	-0.000398911	0.00257449
12.802	12.71	0.000763323	0.00257138
12.8024	12.7095	-4.07311e-05	0.00343218
12.8029	12.7091	-0.000151362	0.0043479
12.8034	12.7086	-0.0010081	0.00352323
12.8039	12.7081	-0.00051828	0.00254572
12.8043	12.7077	0.000720376	0.0024923
12.8048	12.7072	-4.56e-05	0.00336196
12.8053	12.7067	-0.000162633	0.00428669
12.8057	12.7062	-0.00108072	0.00353896
12.8062	12.7057	-0.000628179	0.00257981
12.8067	12.7053	0.000834145	0.00250835
12.8072	12.7048	-3.14571e-05	0.00350036
12.8076	12.7043	-0.000402175	0.0042562
12.8081	12.7038	-0.000988428	0.0035855
12.8086	12.7033	-0.000530283	0.00238536
12.8091	12.7029	0.000857153	0.00258309
12.8095	12.7024	3.018e-06	0.00331009
12.81	12.7019	-0.000291009	0.00428374
12.8105	12.7015	-0.0010173	0.00362786
12.8109	12.701	-0.000543356	0.00230301
12.8114	12.7005	0.000861487	0.00261529
12.8119	12.7	-9.79458e-05	0.00346767
12.8124	12.6996	-0.000374102	0.00425539
12.8128	12.6991	-0.000994831	0.00358518
12.8133	12.6987	-0.000603371	0.00233071
12.8138	12.6982	0.000856689	0.00260268
12.8142	12.6977	-0.000124823	0.00334606
12.8147	12.6973	-0.000535687	0.00425744
12.8152	12.6968	-0.000946748	0.00355034
12.8157	12.6963	-0.000630248	0.00243797
12.8161	12.6958	0.000929509	0.0026824
12.8166	12.6953	-6.45235e-06	0.00344415
12.8171	12.6949	-0.000650188	0.00430135
12.8176	12.6944	-0.000818175	0.0035265
12.818	12.6939	-0.000629713	0.00219697
12.8185	12.6934	0.00107395	0.0027814
12.819	12.693	-0.000130691	0.0034988
12.8194	12.6925	-0.000777494	0.00424326
12.8199	12.6921	-0.000801036	0.00349987
12.8204	12.6916	-0.000635652	0.0022477
12.8209	12.6911	0.000946113	0.00270495
12.8213	12.6906	-9.05443e-05	0.00356559
12.8218	12.6902	-0.000621313	0.00414969
12.8223	12.6897	-0.000670127	0.00343685
12.8227	12.6892	-0.000569163	0.00232775
12.8232	12.6888	0.00101233	0.00277501
12.8237	12.6883	-0.000208451	0.00356714
12.8242	12.6879	-0.000722277	0.0043429
12.8246	12.6874	-0.000656056	0.00338187
12.8251	12.6869	-0.000605707	0.00223917
12.8256	12.6864	0.000879625	0.00270388
12.8261	12.6859	-0.000103617	0.00371177
12.8265	12.6855	-0.000768826	0.00422335
12.827	12.685	-0.000517282	0.00353289
12.8275	12.6845	-0.000655057	0.00225909
12.8279	12.684	0.000914171	0.00272444
12.8284	12.6835	-6.75372e-05	0.0036699
12.8289	12.6831	-0.000947479	0.00407265
12.8294	12.6826	-0.000459728	0.00348602
12.8298	12.6821	-0.000601641	0.00219058
12.8303	12.6817	0.000840281	0.00281925
12.8308	12.6812	-7.26736e-05	0.00360779
12.8312	12.6807	-0.000902999	0.00413444
12.8317	12.6802	-0.000604174	0.00335696
12.8322	12.6798	-0.000592438	0.00216288
12.8327	12.6793	0.000847682	0.00276443
12.8331	12.6788	-0.000204581	0.00369916
12.8336	12.6784	-0.000836314	0.00413042
12.8341	12.6779	-0.000628714	0.00329657
12.8346	12.6774	-0.000479668	0.00226671
12.835	12.6769	0.000816007	0.00278934
12.8355	12.6765	-4.71338e-05	0.00378634
12.836	12.676	-0.00104951	0.00403094
12.8364	12.6755	-0.000628447	0.00321824
12.8369	12.675	-0.00051161	0.00214855
12.8374	12.6745	0.000680765	0.00286064
12.8379	12.6741	-6.9606e-05	0.00388131
12.8383	12.6736	-0.00112827	0.00405193
12.8388	12.6731	-0.000433118	0.0032701
12.8393	12.6727	-0.000451792	0.00223418
12.8397	12.6722	0.000704236	0.00270592
12.8402	12.6717	9.25138e-05	0.00384797
12.8407	12.6713	-0.00115155	0.00400071
12.8412	12.6708	-0.000473265	0.00321405
12.8416	12.6703	-0.000361029	0.00206775
12.8421	12.6698	0.000708908	0.00286407
12.8426	12.6694	1.5556e-05	0.00384813
12.8431	12.6689	-0.00131133	0.0040602
12.8435	12.6685	-0.000390439	0.00325019
12.844	12.668	-0.000344425	0.00215617
12.8445	12.6675	0.000599473	0.0028521
12.8449	12.667	7.97084e-05	0.00395089
12.8454	12.6666	-0.00125151	0.00394187
12.8459	12.6661	-0.000444123	0.003021
12.8464	12.6656	-0.000190777	0.00216133
12.8468	12.6651	0.000705306	0.00283916
12.8473	12.6647	8.79124e-05	0.00393425
12.8478	12.6642	-0.00132613	0.00399792
12.8482	12.6637	-0.000390707	0.00308172
12.8487	12.6632	-0.000187442	0.00214511
12.8492	12.6628	0.000659024	0.00285768
12.8497	12.6623	7.30382e-05	0.0040479
12.8501	12.6619	-0.00126071	0.00395089
12.8506	12.6614	-0.000374102	0.00309417
12.8511	12.6609	-8.80117e-05	0.00215027
12.8516	12.6604	0.000523781	0.00290595
12.852	12.66	0.000146465	0.00403808
12.8525	12.6595	-0.0014473	0.00404012
12.853	12.659	-0.000402977	0.00301337
12.8534	12.6586	-0.000119687	0.00235857
12.8539	12.6581	0.000425618	0.00298224
12.8544	12.6576	2.67564e-05	0.00411388
12.8549	12.6571	-0.00148385	0.00391648
12.8553	12.6567	-0.000351827	0.00307254
12.8558	12.6562	2.06924e-05	0.00222672
12.8563	12.6557	0.000502308	0.00296732
12.8567	12.6552	0.000206283	0.00418598
12.8572	12.6548	-0.0014455	0.00379069
12.8577	12.6543	-0.000255197	0.00302927
12.8582	12.6538	2.269e-05	0.00234735
12.8586	12.6533	0.00037807	0.00294519
12.8591	12.6529	0.000130592	0.00427832
12.8596	12.6524	-0.00151659	0.00389189
12.8601	12.6519	-0.000343426	0.00298675
12.8605	12.6515	0.000166137	0.00233006
12.861	12.651	0.000301112	0.00287513
12.8615	12.6505	0.000272237	0.00421991
12.8619	12.65	-0.0015506	0.00373201
12.8624	12.6496	-0.00037997	0.00301665
12.8629	12.6491	0.000117786	0.00236029
12.8634	12.6486	0.000196545	0.00296978
12.8638	12.6482	0.000293443	0.00413149
12.8643	12.6477	-0.00140769	0.00370538
12.8648	12.6472	-0.000474799	0.00288571
12.8652	12.6467	0.000254562	0.00229006
12.8657	12.6462	0.000363463	0.00304467
12.8662	12.6458	0.000132393	0.0042263
12.8667	12.6453	-0.00150359	0.00382043
12.8671	12.6448	-0.000325288	0.00288431
12.8676	12.6443	0.000272504	0.00224975
12.8681	12.6439	0.000144396	0.00299174
12.8686	12.6434	0.000194744	0.00435536
12.869	12.6429	-0.00151353	0.00377888
12.8695	12.6425	-0.000312483	0.00291668
12.87	12.642	0.000320052	0.00237258
12.8704	12.6415	0.000160733	0.00315645
12.8709	12.6411	0.00017814	0.00431644
12.8714	12.6406	-0.00157001	0.00381544
12.8719	12.6401	-0.000322684	0.00282531
12.8723	12.6396	0.000332055	0.00234718
12.8728	12.6392	9.27813e-05	0.00304902
12.8733	12.6387	0.000146928	0.00443583
12.8737	12.6383	-0.00137008	0.00366367
12.8742	12.6378	-0.00036383	0.00278295
12.8747	12.6373	0.000342525	0.0024551
12.8752	12.6368	3.49605e-05	0.00316144
12.8756	12.6364	0.000141061	0.00431021
12.8761	12.6359	-0.00135834	0.00368547
12.8766	12.6354	-0.000390439	0.00260751
12.8771	12.6349	0.000494639	0.00238692
12.8775	12.6345	1.21669e-06	0.00309261
12.878	12.634	6.77054e-05	0.0043611
12.8785	12.6335	-0.00133073	0.00365556
12.8789	12.633	-0.000444658	0.00269749
12.8794	12.6326	0.000554457	0.00246395
12.8799	12.6321	-1.56552e-05	0.00328051
12.8804	12.6317	6.07677e-05	0.00430135
12.8808	12.6312	-0.00121056	0.00373201
12.8813	12.6307	-0.000455127	0.00264627
12.8818	12.6302	0.000601007	0.00251565
12.8822	12.6298	6.64391e-05	0.00323257
12.8827	12.6293	2.17883e-07	0.00424842
12.8832	12.6288	-0.00125791	0.0036327
12.8837	12.6284	-0.000561958	0.00268863
12.8841	12.6279	0.00068023	0.0024428
12.8846	12.6274	-1.31593e-06	0.00313948
12.8851	12.6269	2.2155e-06	0.00427612
12.8856	12.6264	-0.0012157	0.00358706
12.886	12.626	-0.000491938	0.00251877
12.8865	12.6255	0.000760523	0.00248672
12.887	12.625	-9.26131e-05	0.00327681
12.8874	12.6245	-0.000226589	0.00422072
12.8879	12.624	-0.00104131	0.00356264
12.8884	12.6236	-0.000441322	0.00258727
12.8889	12.6231	0.000725245	0.00245837
12.8893	12.6226	-0.000109217	0.00327305
12.8898	12.6222	-0.000255464	0.00432643
12.8903	12.6217	-0.00118962	0.00360902
12.8907	12.6212	-0.000540021	0.00256859
12.8912	12.6207	0.000793999	0.00259817
12.8917	12.6203	-9.36119e-05	0.0032483
12.8922	12.6198	-0.000387372	0.00437109
12.8926	12.6193	-0.00103851	0.00353863
12.8931	12.6189	-0.00044052	0.00243378
12.8936	12.6184	0.000866088	0.00269904
12.8941	12.6179	-4.65104e-06	0.00342391
12.8945	12.6174	-0.000301746	0.00431177
12.895	12.617	-0.000790567	0.0036241
12.8955	12.6165	-0.000529481	0.00247066
12.8959	12.616	0.000972456	0.00256392
12.8964	12.6156	-5.42679e-05	0.00343014
12.8969	12.6151	-0.000463063	0.00425105
12.8974	12.6146	-0.000866187	0.00367285
12.8978	12.6141	-0.000597503	0.0023357
12.8983	12.6136	0.000853354	0.00255023
12.8988	12.6132	-3.40609e-05	0.00345865
