# 1304     AichiSR QXAFS
# Start     : 8.9544
# End       : 9.0544
# Dir       : Forward
# Points    : 300
# ScanTime  : 1.01549
# Date      : 13.04.23 23:01
# Ring Cur. : 1[mA]
12.7557	12.7561	-9.08118e-05	0.00368579
12.7562	12.7556	-0.000907867	0.0041673
12.7566	12.7551	-0.000450793	0.00337007
12.7571	12.7547	-0.0005799	0.00208799
12.7576	12.7542	0.000903434	0.00282827
12.7581	12.7537	3.18928e-05	0.00371612
12.7585	12.7532	-0.000989694	0.00413181
12.759	12.7528	-0.000487069	0.00335401
12.7595	12.7523	-0.000545889	0.00214248
12.7599	12.7519	0.000909837	0.00286064
12.7604	12.7514	1.30233e-05	0.0038782
12.7609	12.7509	-0.0010191	0.00402734
12.7614	12.7504	-0.000452327	0.00334344
12.7618	12.75	-0.000490404	0.00221598
12.7623	12.7495	0.000813475	0.0028499
12.7628	12.7491	2.2155e-05	0.00367564
12.7632	12.7486	-0.00114641	0.00407716
12.7637	12.7481	-0.000517478	0.00325174
12.7642	12.7477	-0.000404779	0.00206464
12.7647	12.7472	0.000682299	0.00288415
12.7651	12.7467	4.74984e-05	0.0038287
12.7656	12.7462	-0.00127859	0.00408634
12.7661	12.7457	-0.000464062	0.00313637
12.7666	12.7453	-0.000358764	0.00213282
12.767	12.7448	0.000748252	0.00280803
12.7675	12.7443	-5.98681e-05	0.00386902
12.768	12.7438	-0.00115868	0.00406766
12.7684	12.7434	-0.000432387	0.00320455
12.7689	12.7429	-0.00031448	0.00204096
12.7694	12.7424	0.000573131	0.00281721
12.7699	12.742	-7.98616e-06	0.00387197
12.7703	12.7415	-0.0012093	0.00390606
12.7708	12.741	-0.000512413	0.00315988
12.7713	12.7405	-0.000290742	0.00210963
12.7717	12.7401	0.000647021	0.00294627
12.7722	12.7396	0.000101717	0.00385936
12.7727	12.7391	-0.00123177	0.00380363
12.7732	12.7387	-0.000408114	0.00302632
12.7736	12.7382	-0.000172906	0.00218624
12.7741	12.7377	0.000591269	0.00290799
12.7746	12.7373	8.91787e-05	0.0039422
12.7751	12.7368	-0.0013228	0.00392303
12.7755	12.7363	-0.000430586	0.00312482
12.776	12.7358	-0.000100282	0.00219214
12.7765	12.7353	0.000401077	0.00291668
12.7769	12.7349	0.000129789	0.00401488
12.7774	12.7344	-0.00139642	0.00380454
12.7779	12.7339	-0.000366968	0.00295904
12.7784	12.7334	-8.13414e-05	0.00217673
12.7788	12.733	0.000487237	0.00280819
12.7793	12.7325	6.99705e-05	0.00410314
12.7798	12.732	-0.00140002	0.00380986
12.7802	12.7316	-0.000470465	0.00288088
12.7807	12.7311	-2.38592e-05	0.00215805
12.7812	12.7306	0.000485169	0.00292619
12.7817	12.7301	7.38407e-05	0.0041047
12.7821	12.7296	-0.00140363	0.0037675
12.7826	12.7292	-0.000423916	0.00304746
12.7831	12.7287	4.21657e-05	0.00208783
12.7836	12.7283	0.000228488	0.00286686
12.784	12.7278	0.00018094	0.00421589
12.7845	12.7273	-0.00147698	0.0037661
12.785	12.7268	-0.000404244	0.00288603
12.7854	12.7264	0.000166137	0.00224057
12.7859	12.7259	0.000440688	0.00282843
12.7864	12.7254	0.000154134	0.00423285
12.7869	12.7249	-0.00150739	0.00365089
12.7873	12.7245	-0.000394042	0.00290734
12.7878	12.724	0.000187877	0.00211741
12.7883	12.7235	0.000259164	0.00285694
12.7887	12.723	0.000179673	0.00417975
12.7892	12.7226	-0.00148338	0.00358411
12.7897	12.7221	-0.000361029	0.00291185
12.7902	12.7217	0.000144128	0.00222811
12.7906	12.7212	0.000199078	0.00292775
12.7911	12.7207	0.000141596	0.00421696
12.7916	12.7202	-0.00155521	0.00365261
12.7921	12.7198	-0.000403512	0.00277394
12.7925	12.7193	0.000337656	0.0021733
12.793	12.7188	0.000284507	0.00292963
12.7935	12.7184	0.000114986	0.00424171
12.7939	12.7179	-0.001332	0.00368326
12.7944	12.7174	-0.00030888	0.00282655
12.7949	12.717	0.000391874	0.00224631
12.7954	12.7165	0.000180672	0.00302706
12.7958	12.716	0.000146661	0.00424326
12.7963	12.7155	-0.00140589	0.00370415
12.7968	12.7151	-0.000375636	0.00283777
12.7972	12.7146	0.000383402	0.00232276
12.7977	12.7141	0.000177872	0.00313137
12.7982	12.7136	8.35073e-05	0.00416526
12.7987	12.7132	-0.00137341	0.00369153
12.7991	12.7127	-0.000329087	0.00278918
12.7996	12.7122	0.000356329	0.00232104
12.8001	12.7118	0.000110117	0.00297445
12.8006	12.7113	0.000166868	0.00424466
12.801	12.7108	-0.00124764	0.00363688
12.8015	12.7103	-0.000386105	0.00262807
12.802	12.7099	0.000453226	0.00237102
12.8024	12.7094	1.62873e-05	0.00304656
12.8029	12.7089	0.000114986	0.00418303
12.8034	12.7085	-0.0013098	0.0036204
12.8039	12.708	-0.000365363	0.00277812
12.8043	12.7075	0.000427419	0.0023371
12.8048	12.707	3.26953e-05	0.00309605
12.8053	12.7066	1.0152e-05	0.00432905
12.8057	12.7061	-0.00129519	0.00364467
12.8062	12.7056	-0.000559158	0.00263086
12.8067	12.7051	0.000503574	0.0023729
12.8072	12.7046	-2.9727e-05	0.00312547
12.8076	12.7041	-0.000107951	0.00435863
12.8081	12.7037	-0.00109886	0.00359812
12.8086	12.7032	-0.000433386	0.00267462
12.8091	12.7027	0.000613277	0.00238192
12.8095	12.7023	1.22208e-05	0.00324503
12.81	12.7018	-0.000166503	0.00421728
12.8105	12.7013	-0.00114127	0.00352946
12.8109	12.7009	-0.000479935	0.00251098
12.8114	12.7004	0.000675432	0.0024646
12.8119	12.6999	-0.000113819	0.00319242
12.8124	12.6994	-0.000186907	0.00418147
12.8128	12.699	-0.00110707	0.00366646
12.8133	12.6985	-0.000472997	0.00243813
12.8138	12.6981	0.000907233	0.00251565
12.8142	12.6976	1.68223e-05	0.00329657
12.8147	12.6971	-0.000183375	0.00420745
12.8152	12.6966	-0.00114848	0.00359034
12.8157	12.6962	-0.000511146	0.00234906
12.8161	12.6957	0.000760523	0.0024755
12.8166	12.6952	-9.08118e-05	0.00334966
12.8171	12.6947	-0.000290474	0.00424171
12.8176	12.6943	-0.000965421	0.00349193
12.818	12.6938	-0.000479133	0.00225409
12.8185	12.6933	0.000800937	0.002603
12.819	12.6928	-8.9813e-05	0.00335992
12.8194	12.6924	-0.000245994	0.00431209
12.8199	12.6919	-0.00104111	0.0035978
12.8204	12.6915	-0.000552827	0.00240806
12.8209	12.691	0.000863288	0.00260628
12.8213	12.6905	-8.34102e-05	0.00341505
12.8218	12.69	-0.000429783	0.00423113
12.8223	12.6896	-0.00096642	0.00366007
12.8227	12.6891	-0.000550223	0.00242272
12.8232	12.6886	0.00104788	0.00250943
12.8237	12.6882	-8.31427e-05	0.00342096
12.8242	12.6877	-0.000360566	0.0042045
12.8246	12.6872	-0.00094648	0.00351093
12.8251	12.6868	-0.000583235	0.00224057
12.8256	12.6863	0.000925175	0.00262464
12.8261	12.6858	-5.98681e-05	0.00343964
12.8265	12.6853	-0.00056656	0.00428825
12.827	12.6848	-0.000927076	0.00359377
12.8275	12.6843	-0.00057323	0.00231186
12.8279	12.6839	0.000946648	0.00261841
12.8284	12.6834	-0.000119954	0.00334
12.8289	12.6829	-0.00051828	0.00419033
12.8294	12.6825	-0.000801036	0.00347963
12.8298	12.682	-0.000685465	0.00219869
12.8303	12.6815	0.000901633	0.00277517
12.8308	12.6811	-0.000140964	0.00342719
12.8312	12.6806	-0.000687534	0.00415624
12.8317	12.6801	-0.000791833	0.00338531
12.8322	12.6796	-0.000687998	0.00223246
12.8327	12.6792	0.00106575	0.00266512
12.8331	12.6787	-8.31427e-05	0.00352527
12.8336	12.6782	-0.000657589	0.00419844
12.8341	12.6778	-0.000726611	0.00350922
12.8346	12.6773	-0.000619244	0.00221254
12.835	12.6768	0.00107602	0.0027573
12.8355	12.6763	-9.48782e-05	0.00351872
12.836	12.6758	-0.000656858	0.00407512
12.8364	12.6754	-0.000596968	0.00349987
12.8369	12.6749	-0.000467665	0.00212069
12.8374	12.6744	0.00102667	0.00265315
12.8379	12.6739	-0.000105419	0.00356092
12.8383	12.6734	-0.000747353	0.00428218
12.8388	12.673	-0.000538951	0.00340351
12.8393	12.6725	-0.000659391	0.00225941
12.8397	12.6721	0.00092184	0.00274575
12.8402	12.6716	-0.000142961	0.00363876
12.8407	12.6711	-0.000864725	0.00413739
12.8412	12.6706	-0.00061771	0.00340866
12.8416	12.6702	-0.000557624	0.00219714
12.8421	12.6697	0.000903167	0.00275804
12.8426	12.6692	-6.44695e-05	0.00362196
12.8431	12.6688	-0.000938347	0.00412075
12.8435	12.6683	-0.000456126	0.00346267
12.844	12.6679	-0.000650723	0.00220288
12.8445	12.6674	0.000961719	0.00278016
12.8449	12.6669	-0.000105882	0.0035855
12.8454	12.6664	-0.000951082	0.0041156
12.8459	12.666	-0.00051828	0.00334295
12.8464	12.6655	-0.000622312	0.00210372
12.8468	12.665	0.00092464	0.00274092
12.8473	12.6645	-8.41415e-05	0.00375053
12.8478	12.664	-0.000924276	0.00404774
12.8482	12.6636	-0.000511146	0.00344243
12.8487	12.6631	-0.000622044	0.00222779
12.8492	12.6626	0.000862022	0.00289242
12.8497	12.6622	1.14895e-05	0.00369932
12.8501	12.6617	-0.00100557	0.00419081
12.8506	12.6613	-0.000450258	0.00325576
12.8511	12.6608	-0.000421383	0.00216927
12.8516	12.6603	0.000728045	0.00283761
12.852	12.6598	-1.03225e-05	0.00375209
12.8525	12.6594	-0.00108786	0.00401037
12.853	12.6589	-0.000348491	0.00330591
12.8534	12.6584	-0.000433386	0.00216772
12.8539	12.658	0.000739852	0.00280008
12.8544	12.6575	0.000121656	0.00380159
12.8549	12.657	-0.00114741	0.0039853
12.8553	12.6565	-0.000433118	0.00322168
12.8558	12.6561	-0.000433653	0.00211945
12.8563	12.6556	0.00071244	0.00280647
12.8567	12.6551	-0.000109752	0.00386403
12.8572	12.6546	-0.0012139	0.00399153
12.8577	12.6541	-0.000458926	0.00315178
12.8582	12.6537	-0.000240126	0.00215306
12.8586	12.6532	0.00065362	0.0028521
12.8591	12.6527	7.61942e-06	0.00395105
12.8596	12.6523	-0.00123717	0.00394015
12.8601	12.6518	-0.000439254	0.00307082
12.8605	12.6513	-0.000258264	0.00213953
12.861	12.6508	0.000527848	0.00285006
12.8615	12.6504	-1.15888e-05	0.00389361
12.8619	12.6499	-0.00132513	0.00389409
12.8624	12.6494	-0.000362296	0.00313588
12.8629	12.649	-0.000269001	0.00213593
12.8634	12.6485	0.000471097	0.00294471
12.8638	12.648	6.28365e-05	0.00397891
12.8643	12.6475	-0.00129906	0.00396866
12.8648	12.6471	-0.000351827	0.00307361
12.8652	12.6466	-6.14019e-05	0.00212708
12.8657	12.6461	0.000594336	0.00283187
12.8662	12.6456	0.000185541	0.00409364
12.8667	12.6451	-0.00140102	0.00388894
12.8671	12.6447	-0.00035443	0.00308794
12.8676	12.6442	-2.58568e-05	0.00222935
12.8681	12.6437	0.000502041	0.00290439
12.8686	12.6432	8.05109e-05	0.0040384
12.869	12.6428	-0.00137828	0.00378946
12.8695	12.6423	-0.000382039	0.0030137
12.87	12.6419	0.000113452	0.00224057
12.8704	12.6414	0.000419946	0.00295142
12.8709	12.6409	3.26242e-05	0.00413396
12.8714	12.6404	-0.00140516	0.00372686
12.8719	12.64	-0.000384572	0.00292758
12.8723	12.6395	9.32452e-05	0.00222328
12.8728	12.639	0.000412812	0.00276476
12.8733	12.6386	0.000144663	0.004136
12.8737	12.6381	-0.00149612	0.00382666
12.8742	12.6376	-0.000434385	0.0029307
12.8747	12.6372	0.000161999	0.00217083
12.8752	12.6367	0.000297777	0.00287513
12.8756	12.6362	0.000201147	0.00407528
12.8761	12.6357	-0.00144684	0.0038265
12.8766	12.6353	-0.000389173	0.00295389
12.8771	12.6348	8.91787e-05	0.00218361
12.8775	12.6343	0.00025483	0.00288882
12.878	12.6338	0.000149265	0.00416902
12.8785	12.6334	-0.00139776	0.00371752
12.8789	12.6329	-0.000324486	0.00281163
12.8794	12.6324	0.000163265	0.00227187
12.8799	12.632	0.000261964	0.00294176
12.8804	12.6315	8.48448e-05	0.00419844
12.8808	12.631	-0.00145064	0.00381109
12.8813	12.6306	-0.000257533	0.00277303
12.8818	12.6301	0.000307711	0.00220476
12.8822	12.6296	0.000244093	0.00294331
12.8827	12.6291	0.000142595	0.00424949
12.8832	12.6287	-0.00147852	0.00372734
12.8837	12.6282	-0.000352629	0.00285613
12.8841	12.6277	0.000339724	0.00232636
12.8846	12.6273	0.000156934	0.0029919
12.8851	12.6268	0.000249961	0.00427472
12.8856	12.6263	-0.0014287	0.00367301
12.886	12.6258	-0.000356963	0.00279401
12.8865	12.6253	0.000314381	0.0022622
12.887	12.6249	0.000192943	0.00303485
12.8874	12.6244	0.000148997	0.0041709
12.8879	12.6239	-0.00134581	0.00361508
12.8884	12.6234	-0.000279738	0.0029016
12.8889	12.623	0.000403609	0.00220427
12.8893	12.6225	0.000124724	0.00318136
12.8898	12.622	0.000192479	0.0043865
12.8903	12.6216	-0.00128219	0.00373341
12.8907	12.6211	-0.000436454	0.00275542
12.8912	12.6206	0.000462162	0.0023634
12.8917	12.6201	0.000109386	0.00314662
12.8922	12.6196	5.51675e-05	0.00427596
12.8926	12.6192	-0.00118682	0.00367613
12.8931	12.6187	-0.000368966	0.0026089
12.8936	12.6183	0.000595603	0.00241274
12.8941	12.6178	9.60453e-05	0.00322618
12.8945	12.6173	0.000156934	0.00418738
12.895	12.6168	-0.00125631	0.00361508
12.8955	12.6164	-0.000426252	0.00270109
12.8959	12.6159	0.000566995	0.00232308
12.8964	12.6154	4.13632e-05	0.00314104
12.8969	12.6149	2.29575e-05	0.00423999
12.8974	12.6145	-0.00124971	0.00364778
12.8978	12.614	-0.0003733	0.00249525
12.8983	12.6135	0.000635749	0.00229195
12.8988	12.613	-6.98735e-05	0.00321389
