# 1304     AichiSR QXAFS
# Start     : 8.9544
# End       : 9.0544
# Dir       : Forward
# Points    : 300
# ScanTime  : 1.01549
# Date      : 13.04.23 23:39
# Ring Cur. : 0.9[mA]
12.7557	12.7562	0.000358665	0.0022745
12.7562	12.7558	0.000233357	0.00303984
12.7566	12.7553	0.000271702	0.00421975
12.7571	12.7548	-0.001332	0.00369449
12.7576	12.7543	-0.000341892	0.00268659
12.7581	12.7539	0.000648822	0.00220771
12.7585	12.7534	0.000202681	0.00307409
12.759	12.7529	0.000225955	0.00428997
12.7595	12.7525	-0.00125665	0.00357182
12.7599	12.752	-0.000419314	0.00269969
12.7604	12.7516	0.000636552	0.00223246
12.7609	12.7511	0.000155667	0.00321405
12.7614	12.7506	0.000127256	0.00428111
12.7618	12.7501	-0.00127345	0.00362394
12.7623	12.7497	-0.000206917	0.00271429
12.7628	12.7492	0.000653887	0.00241183
12.7632	12.7487	3.16253e-05	0.00302739
12.7637	12.7483	5.79676e-05	0.00427956
12.7642	12.7478	-0.00123077	0.00363892
12.7647	12.7473	-0.000399107	0.00266839
12.7651	12.7469	0.000812672	0.00249713
12.7656	12.7464	2.93602e-05	0.00324299
12.7661	12.7459	1.68223e-05	0.00427129
12.7666	12.7454	-0.00109299	0.00372063
12.767	12.7449	-0.000397306	0.00265749
12.7675	12.7445	0.000753317	0.00236807
12.768	12.744	3.90269e-05	0.00317062
12.7684	12.7435	5.95014e-05	0.00418705
12.7689	12.743	-0.00110193	0.0036
12.7694	12.7426	-0.000369233	0.00264922
12.7699	12.7421	0.000758989	0.00244387
12.7703	12.7417	7.61942e-06	0.00317545
12.7708	12.7412	4.77659e-05	0.00430307
12.7713	12.7407	-0.00100323	0.00353944
12.7717	12.7402	-0.000304814	0.00249557
12.7722	12.7398	0.000586667	0.00241011
12.7727	12.7393	0.000125455	0.00314555
12.7732	12.7388	-0.000134561	0.0042839
12.7736	12.7384	-0.00104951	0.00358771
12.7741	12.7379	-0.000361297	0.00242911
12.7746	12.7374	0.000831078	0.0024115
12.7751	12.7369	-3.17116e-07	0.00322307
12.7755	12.7365	-9.46107e-05	0.004214
12.776	12.736	-0.00106845	0.00361197
12.7765	12.7355	-0.000378971	0.00243067
12.7769	12.735	0.00090957	0.00241961
12.7774	12.7345	-7.08723e-05	0.003276
12.7779	12.7341	-0.000166503	0.0042671
12.7784	12.7336	-0.000909669	0.00352994
12.7788	12.7331	-0.000367432	0.00242396
12.7793	12.7326	0.000969656	0.00234783
12.7798	12.7322	0.000104517	0.00324863
12.7802	12.7317	-0.000257266	0.00411093
12.7807	12.7312	-0.000942949	0.00346595
12.7812	12.7307	-0.000396842	0.00233521
12.7817	12.7303	0.000981391	0.00251565
12.7821	12.7298	0.000154865	0.00331321
12.7826	12.7293	-0.000202583	0.00435069
12.7831	12.7289	-0.000865188	0.0035701
12.7836	12.7284	-0.000398108	0.00243593
12.784	12.7279	0.000960185	0.0024392
12.7845	12.7275	-4.63313e-05	0.00329206
12.785	12.727	-0.000349561	0.00429062
12.7854	12.7265	-0.000863922	0.00355125
12.7859	12.726	-0.00049654	0.00222377
12.7864	12.7256	0.000969923	0.00242986
12.7869	12.7251	-4.01961e-05	0.00326527
12.7873	12.7246	-0.000359763	0.00412338
12.7878	12.7241	-0.000776763	0.0035097
12.7883	12.7237	-0.000545889	0.00218763
12.7887	12.7232	0.00107549	0.00261889
12.7892	12.7227	-1.84553e-05	0.00335992
12.7897	12.7223	-0.000303476	0.00421121
12.7902	12.7218	-0.000791566	0.00350905
12.7906	12.7213	-0.000596505	0.00224212
12.7911	12.7209	0.00105095	0.0025826
12.7916	12.7204	4.92997e-05	0.00333705
12.7921	12.7199	-0.000481933	0.0041782
12.7925	12.7195	-0.000728412	0.00352634
12.793	12.719	-0.000488603	0.00223402
12.7935	12.7185	0.00108929	0.00256547
12.7939	12.7181	3.06265e-05	0.00345972
12.7944	12.7176	-0.000520082	0.00420294
12.7949	12.7171	-0.000734012	0.00342702
12.7954	12.7166	-0.000490672	0.00217485
12.7958	12.7162	0.00104301	0.00254835
12.7963	12.7157	-0.000133027	0.00366335
12.7968	12.7152	-0.000660924	0.00415017
12.7972	12.7147	-0.000843983	0.00341038
12.7977	12.7142	-0.000607509	0.00214527
12.7982	12.7138	0.00103741	0.0026511
12.7987	12.7133	-6.11344e-05	0.00340711
12.7991	12.7128	-0.000691333	0.00414673
12.7996	12.7124	-0.000726611	0.00335057
12.8001	12.7119	-0.000552488	0.00214076
12.8006	12.7114	0.00105148	0.0026824
12.801	12.711	-5.42679e-05	0.00360886
12.8015	12.7105	-0.000596772	0.00411093
12.802	12.71	-0.000550223	0.0033772
12.8024	12.7095	-0.000576565	0.00206292
12.8029	12.7091	0.00103714	0.00264692
12.8034	12.7086	2.29575e-05	0.0035891
12.8039	12.7082	-0.000742484	0.00417197
12.8043	12.7077	-0.000508079	0.00331369
12.8048	12.7072	-0.000503941	0.002043
12.8053	12.7067	0.000981391	0.00276164
12.8057	12.7062	-6.19369e-05	0.00362303
12.8062	12.7058	-0.000651187	0.0041673
12.8067	12.7053	-0.000393507	0.00340695
12.8072	12.7048	-0.000546156	0.00216117
12.8076	12.7043	0.00108829	0.00283122
12.8081	12.7038	1.0687e-05	0.00364139
12.8086	12.7034	-0.000864457	0.00414051
12.8091	12.7029	-0.000492473	0.00346439
12.8095	12.7024	-0.000593169	0.00215322
12.81	12.702	0.00096352	0.00276288
12.8105	12.7015	-9.51996e-06	0.00371333
12.8109	12.701	-0.000765758	0.00404463
12.8114	12.7005	-0.000476065	0.00336303
12.8119	12.7001	-0.000413446	0.00215649
12.8124	12.6996	0.00104048	0.00283933
12.8128	12.6991	2.75589e-05	0.00368236
12.8133	12.6987	-0.000889194	0.00408961
12.8138	12.6982	-0.000430051	0.0033255
12.8142	12.6978	-0.000446923	0.00221861
12.8147	12.6973	0.000978858	0.00260284
12.8152	12.6968	6.69029e-05	0.00370866
12.8157	12.6963	-0.000870057	0.00408339
12.8161	12.6958	-0.000414445	0.00327928
12.8166	12.6954	-0.000459461	0.00211618
12.8171	12.6949	0.00085182	0.00277893
12.8176	12.6944	-1.05188e-05	0.00386091
12.818	12.6939	-0.000909401	0.00398203
12.8185	12.6935	-0.000435455	0.00320503
12.819	12.693	-0.000236791	0.00205267
12.8194	12.6925	0.000782264	0.00280679
12.8199	12.6921	-5.60692e-05	0.00379118
12.8204	12.6916	-0.00106738	0.00409085
12.8209	12.6911	-0.000352094	0.00316783
12.8213	12.6907	-0.000303012	0.00216739
12.8218	12.6902	0.000718842	0.00267462
12.8223	12.6897	7.23068e-05	0.00384174
12.8227	12.6893	-0.000976158	0.00400833
12.8232	12.6888	-0.000368698	0.00316735
12.8237	12.6883	-0.000336025	0.00210839
12.8242	12.6879	0.00078073	0.00284539
12.8246	12.6874	2.57576e-05	0.00382043
12.8251	12.6869	-0.00109806	0.00381077
12.8256	12.6864	-0.000388905	0.00308982
12.8261	12.6859	-0.000222452	0.00217829
12.8265	12.6855	0.000746718	0.00281721
12.827	12.685	8.07072e-05	0.00392786
12.8275	12.6845	-0.00109119	0.00388115
12.8279	12.684	-0.000449526	0.00308311
12.8284	12.6836	-0.000210716	0.00218951
12.8289	12.6831	0.000681496	0.00274747
12.8294	12.6826	9.83816e-05	0.00386247
12.8298	12.6822	-0.00117329	0.00394826
12.8303	12.6817	-0.000253663	0.00314292
12.8308	12.6812	-0.000167502	0.00211585
12.8312	12.6807	0.000642955	0.00278467
12.8317	12.6803	0.000168937	0.00390263
12.8322	12.6798	-0.0012285	0.00395851
12.8327	12.6793	-0.000281806	0.00314415
12.8331	12.6789	-0.000129157	0.00220116
12.8336	12.6784	0.000576198	0.0028594
12.8341	12.6779	9.57778e-05	0.00396039
12.8346	12.6774	-0.00116995	0.00379568
12.835	12.677	-0.00029661	0.00296806
12.8355	12.6765	4.26295e-05	0.00211306
12.836	12.676	0.000589735	0.00292324
12.8364	12.6755	0.000254027	0.00393999
12.8369	12.675	-0.0013346	0.00378183
12.8374	12.6746	-0.000381504	0.00296683
12.8379	12.6741	5.39012e-05	0.00216788
12.8383	12.6736	0.000556259	0.00292528
12.8388	12.6731	0.000185541	0.00408323
12.8393	12.6727	-0.00135915	0.00380347
12.8397	12.6722	-0.000307614	0.00291497
12.8402	12.6718	8.71099e-05	0.0020553
12.8407	12.6713	0.000581067	0.00275182
12.8412	12.6708	0.000117055	0.0041505
12.8416	12.6703	-0.00133127	0.00378028
12.8421	12.6699	-0.000207649	0.00299002
12.8426	12.6694	7.23068e-05	0.0021719
12.8431	12.6689	0.000439154	0.00286407
12.8435	12.6685	0.000130324	0.00407904
12.844	12.668	-0.00136835	0.00373668
12.8445	12.6675	-0.000207381	0.00298396
12.8449	12.6671	0.000154062	0.00218403
12.8454	12.6666	0.000330254	0.00279122
12.8459	12.6661	0.000212882	0.00422195
12.8464	12.6656	-0.00153066	0.00371628
12.8468	12.6652	-0.000325752	0.00286874
12.8473	12.6647	0.000265834	0.00227031
12.8478	12.6642	0.000535053	0.00284974
12.8482	12.6637	0.000227221	0.0041192
12.8487	12.6633	-0.00143043	0.00371054
12.8492	12.6628	-0.000359496	0.00287809
12.8497	12.6623	0.000237423	0.00218903
12.8501	12.6619	0.000400345	0.00299158
12.8506	12.6614	0.000123921	0.00419983
12.8511	12.6609	-0.0014353	0.00362786
12.8516	12.6604	-0.000277205	0.00289537
12.852	12.66	0.000297509	0.00215092
12.8525	12.6595	0.000344861	0.00295593
12.853	12.6591	0.000158931	0.00408494
12.8534	12.6586	-0.00141356	0.00371768
12.8539	12.6581	-0.000288477	0.00283482
12.8544	12.6576	0.000312116	0.0023058
12.8549	12.6572	0.00024256	0.00297429
12.8553	12.6567	0.000302111	0.00422179
12.8558	12.6562	-0.00134968	0.00368203
12.8563	12.6557	-0.000271801	0.00279229
12.8567	12.6553	0.000349926	0.00221115
12.8572	12.6548	0.000260234	0.00299936
12.8577	12.6543	0.00021035	0.00422179
12.8582	12.6538	-0.00138902	0.00369261
12.8586	12.6534	-0.000257729	0.00277565
12.8591	12.6529	0.000448357	0.00223311
12.8596	12.6524	0.000196813	0.00299362
12.8601	12.652	0.000293175	0.00428874
12.8605	12.6515	-0.0013338	0.00364638
12.861	12.651	-0.000278471	0.00271821
12.8615	12.6505	0.000418216	0.00228056
12.8619	12.65	0.000183009	0.00296683
12.8624	12.6496	0.000216485	0.00418566
12.8629	12.6491	-0.00124231	0.00365073
12.8634	12.6486	-0.000367165	0.00266061
12.8638	12.6482	0.000520981	0.00225442
12.8643	12.6477	0.000160001	0.00306722
12.8648	12.6472	0.00018374	0.00429931
12.8652	12.6467	-0.00124998	0.00366131
12.8657	12.6463	-0.000387907	0.00271789
12.8662	12.6458	0.000479301	0.002225
12.8667	12.6453	0.000133124	0.00301182
12.8671	12.6448	5.23673e-05	0.00423285
12.8676	12.6443	-0.0012203	0.00362475
12.8681	12.6439	-0.000285873	0.00268068
12.8686	12.6434	0.000480835	0.00230424
12.869	12.6429	0.000204214	0.00309884
12.8695	12.6425	0.000249694	0.00415828
12.87	12.642	-0.00108352	0.00351453
12.8704	12.6416	-0.000285338	0.0025885
12.8709	12.6411	0.000685366	0.00236807
12.8714	12.6406	0.000120854	0.00319988
12.8719	12.6401	0.00012599	0.00419484
12.8723	12.6397	-0.0011114	0.00349832
12.8728	12.6392	-0.000346958	0.0026357
12.8733	12.6387	0.000663625	0.00235996
12.8737	12.6383	0.000110652	0.00308172
12.8742	12.6378	-8.98496e-06	0.00440378
12.8747	12.6373	-0.00100097	0.00355904
12.8752	12.6369	-0.000380969	0.00262807
12.8756	12.6364	0.000786062	0.00244903
12.8761	12.6359	0.000143861	0.00327166
12.8766	12.6354	-5.7603e-05	0.00420901
12.8771	12.6349	-0.0010173	0.00346799
12.8775	12.6345	-0.000408042	0.00254744
12.878	12.634	0.000802738	0.00246165
12.8785	12.6335	0.000130592	0.0032796
12.8789	12.6331	-6.04031e-05	0.00411624
12.8794	12.6326	-0.000954417	0.0034798
12.8799	12.6321	-0.000361564	0.00247845
12.8804	12.6317	0.000777662	0.00248328
12.8808	12.6312	4.01681e-06	0.00311597
12.8813	12.6307	-8.95455e-05	0.00420155
12.8818	12.6302	-0.00100963	0.0035447
12.8822	12.6298	-0.000398911	0.0023262
12.8827	12.6293	0.000869423	0.0024056
12.8832	12.6288	-1.43889e-05	0.003217
12.8837	12.6284	-0.000149096	0.00435332
12.8841	12.6279	-0.00101297	0.00347373
12.8846	12.6274	-0.000336221	0.00231997
12.8851	12.6269	0.000839014	0.00248328
12.8856	12.6265	-8.71746e-06	0.00325748
12.886	12.626	-0.000251398	0.00427816
12.8865	12.6255	-0.000984825	0.00357756
12.887	12.625	-0.000487604	0.00241478
12.8874	12.6245	0.000996462	0.00247329
12.8879	12.6241	-2.9192e-05	0.00333656
12.8884	12.6236	-0.00028227	0.0040647
12.8889	12.6231	-0.000980759	0.00352232
12.8893	12.6227	-0.000506277	0.00236324
12.8898	12.6222	0.000981926	0.00251098
12.8903	12.6217	-7.781e-05	0.00330838
12.8907	12.6212	-0.000442321	0.00414894
12.8912	12.6208	-0.000863922	0.00342407
12.8917	12.6203	-0.000465328	0.00227154
12.8922	12.6198	0.00102434	0.00244854
12.8926	12.6193	2.269e-05	0.00322184
12.8931	12.6189	-0.00032115	0.00409445
12.8936	12.6184	-0.000871591	0.00340351
12.8941	12.6179	-0.000437185	0.0022513
12.8945	12.6175	0.00109029	0.00256735
12.895	12.617	-4.24612e-05	0.00338483
12.8955	12.6165	-0.000526681	0.00422678
12.8959	12.616	-0.000903801	0.00349102
12.8964	12.6156	-0.000488335	0.00232415
12.8969	12.6151	0.00113404	0.00256547
12.8974	12.6146	3.18928e-05	0.00329362
12.8978	12.6141	-0.000533886	0.00430586
12.8983	12.6137	-0.000786233	0.00341473
12.8988	12.6132	-0.000551222	0.00226016
