# 1304     AichiSR QXAFS
# Start     : 8.9544
# End       : 9.0544
# Dir       : Backward
# Points    : 300
# ScanTime  : 1.01549
# Date      : 13.04.23 23:21
# Ring Cur. : 0.9[mA]
12.7557	12.6123	0.000611012	0.00287465
12.7562	12.6127	9.12475e-05	0.00407855
12.7566	12.6132	-0.00144937	0.00392442
12.7571	12.6137	-0.000527483	0.00312982
12.7576	12.6141	-0.00013556	0.0022636
12.7581	12.6146	0.000514043	0.00292775
12.7585	12.6151	8.3846e-05	0.00396351
12.759	12.6156	-0.00138875	0.00389393
12.7595	12.6161	-0.000317352	0.00300264
12.7599	12.6165	5.81811e-06	0.00225909
12.7604	12.617	0.000399275	0.00292603
12.7609	12.6175	5.0031e-05	0.00411453
12.7614	12.618	-0.00145984	0.00388754
12.7618	12.6184	-0.000308612	0.00308467
12.7623	12.6189	6.33715e-05	0.00221754
12.7628	12.6194	0.000542455	0.00301649
12.7632	12.6198	0.000149532	0.00413133
12.7637	12.6203	-0.00146751	0.00382215
12.7642	12.6208	-0.000344425	0.00308081
12.7647	12.6213	5.95014e-05	0.00227466
12.7651	12.6217	0.000414078	0.00292775
12.7656	12.6222	0.000203216	0.00415951
12.7661	12.6227	-0.00148952	0.00376503
12.7666	12.6231	-0.000325484	0.00298723
12.767	12.6236	1.24883e-05	0.00236807
12.7675	12.6241	0.000414078	0.00301321
12.768	12.6245	2.16912e-05	0.00421835
12.7684	12.625	-0.00129699	0.0039372
12.7689	12.6255	-0.000396575	0.00298444
12.7694	12.626	0.000176338	0.00217673
12.7699	12.6265	0.0002643	0.00303034
12.7703	12.6269	0.00027864	0.00429029
12.7708	12.6274	-0.00136501	0.00386215
12.7713	12.6279	-0.000226589	0.00299485
12.7717	12.6284	0.000276838	0.00226048
12.7722	12.6288	0.00034586	0.00297322
12.7727	12.6293	0.000119855	0.00435273
12.7732	12.6298	-0.00140182	0.0038564
12.7736	12.6302	-0.000256731	0.00288743
12.7741	12.6307	0.000257898	0.00239142
12.7746	12.6312	0.000241293	0.00298379
12.7751	12.6317	0.000192479	0.00429513
12.7755	12.6321	-0.0014269	0.00377577
12.776	12.6326	-0.00031835	0.00299437
12.7765	12.6331	0.000296778	0.00229399
12.7769	12.6335	0.000272504	0.00308451
12.7774	12.634	0.000255829	0.00433684
12.7779	12.6345	-0.00133353	0.00370227
12.7784	12.6349	-0.000278471	0.00285022
12.7788	12.6354	0.000290643	0.00234316
12.7793	12.6359	0.000273236	0.00306427
12.7798	12.6364	0.000143861	0.0043166
12.7802	12.6368	-0.00136574	0.00373497
12.7807	12.6373	-0.000290742	0.00289505
12.7812	12.6378	0.00045476	0.00233833
12.7817	12.6383	0.000136192	0.00320503
12.7821	12.6387	0.000202948	0.00433324
12.7826	12.6392	-0.00138162	0.0038287
12.7831	12.6397	-0.000246993	0.00286236
12.7836	12.6401	0.000436087	0.00234955
12.784	12.6406	0.000156934	0.00315752
12.7845	12.6411	0.000107049	0.00429824
12.785	12.6415	-0.00140696	0.00380642
12.7854	12.642	-0.000291277	0.00283294
12.7859	12.6425	0.000428685	0.00238536
12.7864	12.6429	0.000156666	0.00311302
12.7869	12.6434	0.000178675	0.00432782
12.7873	12.6439	-0.00135734	0.00370136
12.7878	12.6443	-0.000338022	0.00269797
12.7883	12.6448	0.000429684	0.00243035
12.7887	12.6453	0.00013159	0.00317669
12.7892	12.6458	0.000146465	0.00432841
12.7897	12.6463	-0.00138929	0.00376906
12.7902	12.6467	-0.00037997	0.00278779
12.7906	12.6472	0.000590734	0.00246428
12.7911	12.6477	0.000136192	0.00326478
12.7916	12.6482	6.49053e-05	0.00426522
12.7921	12.6486	-0.00127958	0.00370678
12.7925	12.6491	-0.000442856	0.00261718
12.793	12.6496	0.000717041	0.00233054
12.7935	12.65	6.08561e-06	0.00318759
12.7939	12.6505	6.59041e-05	0.00443664
12.7944	12.651	-0.0012065	0.00371489
12.7949	12.6515	-0.000329354	0.00254851
12.7954	12.652	0.000757723	0.00249836
12.7958	12.6524	1.90874e-05	0.00317185
12.7963	12.6529	-7.781e-05	0.00437093
12.7968	12.6533	-0.0012305	0.00363082
12.7972	12.6538	-0.000308416	0.00258695
12.7977	12.6543	0.000692768	0.00238692
12.7982	12.6548	8.71099e-05	0.00326854
12.7987	12.6553	-6.65383e-05	0.00430586
12.7991	12.6557	-0.00117555	0.00365991
12.7996	12.6562	-0.000470197	0.00257653
12.8001	12.6567	0.000762057	0.00250196
12.8006	12.6572	4.44308e-05	0.00322635
12.801	12.6576	-0.0001545	0.00433856
12.8015	12.6581	-0.00105745	0.00379241
12.802	12.6586	-0.000474531	0.00264283
12.8024	12.659	0.000724978	0.00253385
12.8029	12.6595	-6.45235e-06	0.00326715
12.8034	12.66	-8.84755e-05	0.00434511
12.8039	12.6604	-0.00104518	0.00356371
12.8043	12.6609	-0.000389173	0.00263193
12.8048	12.6614	0.000751052	0.00256826
12.8053	12.6619	4.62321e-05	0.00333033
12.8057	12.6623	-0.000144495	0.00427939
12.8062	12.6628	-0.00102957	0.00358738
12.8067	12.6633	-0.000508079	0.00249869
12.8072	12.6637	0.000751855	0.00259226
12.8076	12.6642	9.68823e-06	0.0033182
12.8081	12.6647	-0.000207916	0.00423457
12.8086	12.6651	-0.00088486	0.00360295
12.8091	12.6656	-0.000448991	0.00247066
12.8095	12.6661	0.000808606	0.00253401
12.81	12.6666	8.83762e-05	0.00347324
12.8105	12.6671	-0.000347493	0.00437248
12.8109	12.6675	-0.00085092	0.00366662
12.8114	12.668	-0.000488335	0.00248296
12.8119	12.6685	0.000919771	0.00275837
12.8124	12.6689	-7.13361e-05	0.00334016
12.8128	12.6694	-0.00035443	0.00426522
12.8133	12.6699	-0.000855451	0.00350659
12.8138	12.6703	-0.000471267	0.00235733
12.8142	12.6708	0.00087736	0.00267806
12.8147	12.6713	-8.46765e-05	0.00344571
12.8152	12.6717	-0.000386569	0.00432406
12.8157	12.6722	-0.000860052	0.00354191
12.8161	12.6727	-0.000553558	0.00254228
12.8166	12.6731	0.000899635	0.00266979
12.8171	12.6736	2.29575e-05	0.00337221
12.8176	12.6741	-0.000376635	0.00427751
12.818	12.6746	-0.000834512	0.0036014
12.8185	12.675	-0.000590637	0.0022418
12.819	12.6755	0.00105095	0.00267413
12.8194	12.676	-7.54737e-05	0.00361213
12.8199	12.6765	-0.000452059	0.00431504
12.8204	12.677	-0.00077036	0.00360156
12.8209	12.6774	-0.000510076	0.00238004
12.8213	12.6779	0.00099853	0.00269937
12.8218	12.6784	-1.41214e-05	0.00356403
12.8223	12.6789	-0.000574229	0.00437732
12.8227	12.6793	-0.000733548	0.00354798
12.8232	12.6798	-0.00061771	0.00225098
12.8237	12.6803	0.000923838	0.00271649
12.8242	12.6807	-6.06706e-05	0.00357026
12.8246	12.6812	-0.00050601	0.00427939
12.8251	12.6817	-0.000679598	0.00347996
12.8256	12.6822	-0.000668326	0.00228916
12.8261	12.6826	0.00104408	0.00273952
12.8265	12.6831	-4.60638e-05	0.00354052
12.827	12.6836	-0.000719744	0.00409675
12.8275	12.684	-0.000724809	0.00344415
12.8279	12.6845	-0.000665526	0.00236823
12.8284	12.685	0.000953247	0.00271445
12.8289	12.6855	-0.00010335	0.00363049
12.8294	12.686	-0.000662458	0.00415951
12.8298	12.6864	-0.000664991	0.00347545
12.8303	12.6869	-0.000650455	0.00216272
12.8308	12.6874	0.00107782	0.00267134
12.8312	12.6879	-0.000103617	0.00354814
12.8317	12.6883	-0.000726611	0.00433265
12.8322	12.6888	-0.000647923	0.00353601
12.8327	12.6893	-0.000568361	0.00230177
12.8331	12.6897	0.000942047	0.00270887
12.8336	12.6902	-7.16748e-05	0.00381404
12.8341	12.6907	-0.000726611	0.00424686
12.8346	12.6911	-0.000571964	0.00346783
12.835	12.6916	-0.000621045	0.00220009
12.8355	12.6921	0.000922839	0.00275804
12.836	12.6925	-7.674e-05	0.00362786
12.8364	12.693	-0.000780098	0.00418442
12.8369	12.6935	-0.00054769	0.00334344
12.8374	12.6939	-0.000640985	0.00219574
12.8379	12.6944	0.000914438	0.00284244
12.8383	12.6949	4.92997e-05	0.00367129
12.8388	12.6954	-0.000907867	0.00417025
12.8393	12.6958	-0.000638916	0.00332722
12.8397	12.6963	-0.000629981	0.00212691
12.8402	12.6968	0.000863823	0.00267086
12.8407	12.6973	6.00364e-05	0.00366023
12.8412	12.6977	-0.000825577	0.00414051
12.8416	12.6982	-0.000568896	0.00339777
12.8421	12.6987	-0.000580168	0.00225753
12.8426	12.6991	0.000950982	0.00274903
12.8431	12.6996	3.56918e-05	0.00377217
12.8435	12.7001	-0.00103237	0.00412542
12.844	12.7005	-0.000381504	0.00333689
12.8445	12.701	-0.000540485	0.00217502
12.8449	12.7015	0.000840816	0.00285833
12.8454	12.702	-3.83948e-05	0.0038796
12.8459	12.7024	-0.000990693	0.00414862
12.8464	12.7029	-0.000426983	0.00336507
12.8468	12.7034	-0.000357962	0.00227294
12.8473	12.7038	0.000752319	0.00281114
12.8478	12.7043	8.94462e-05	0.00395556
12.8482	12.7048	-0.00113828	0.00406766
12.8487	12.7053	-0.000495541	0.00324036
12.8492	12.7058	-0.000508007	0.00213642
12.8497	12.7062	0.000860488	0.00287481
12.8501	12.7067	-0.000129157	0.00382994
12.8506	12.7072	-0.00111627	0.00401816
12.8511	12.7077	-0.000367967	0.00331976
12.8516	12.7082	-0.000350828	0.00224336
12.852	12.7086	0.000756189	0.00288538
12.8525	12.7091	9.5849e-05	0.00392893
12.853	12.7096	-0.00111673	0.00411281
12.8534	12.71	-0.00031835	0.00317513
12.8539	12.7105	-0.000281271	0.00221689
12.8544	12.711	0.000727778	0.00285506
12.8549	12.7115	3.59593e-05	0.00396711
12.8553	12.7119	-0.00129185	0.00398702
12.8558	12.7124	-0.000358497	0.00319038
12.8563	12.7128	-0.000263133	0.00228088
12.8567	12.7133	0.000617344	0.00295314
12.8572	12.7138	8.02434e-05	0.00389828
12.8577	12.7143	-0.0012313	0.00397752
12.8582	12.7147	-0.000351827	0.00327305
12.8586	12.7152	-0.000203047	0.00224352
12.8591	12.7157	0.000690431	0.00281581
12.8596	12.7162	4.90322e-05	0.00398391
12.8601	12.7166	-0.00119296	0.00408167
12.8605	12.7171	-0.000364097	0.0032919
12.861	12.7176	-0.000161902	0.00221533
12.8615	12.7181	0.000576466	0.00291111
12.8619	12.7185	0.000112186	0.00401644
12.8624	12.719	-0.00132126	0.00399169
12.8629	12.7195	-0.000297876	0.00319537
12.8634	12.7199	-9.94796e-05	0.00219058
12.8638	12.7204	0.000553459	0.00293102
12.8643	12.7209	9.5314e-05	0.00397924
12.8648	12.7213	-0.0014205	0.0038746
12.8652	12.7218	-0.000405242	0.00318168
12.8657	12.7223	-0.000216852	0.00222607
12.8662	12.7227	0.00051638	0.00292168
12.8667	12.7232	0.000197544	0.00407388
12.8671	12.7237	-0.00132	0.00395433
12.8676	12.7241	-0.000408845	0.00314227
12.8681	12.7246	-8.03426e-05	0.00224057
12.8686	12.7251	0.000557525	0.00296699
12.869	12.7256	0.000199613	0.00409724
12.8695	12.726	-0.00143557	0.00392786
12.87	12.7265	-0.000280273	0.00304467
12.8704	12.727	-1.38539e-05	0.0021973
12.8709	12.7275	0.000534518	0.00298068
12.8714	12.7279	0.000129058	0.00418426
12.8719	12.7284	-0.0013256	0.00379676
12.8723	12.7289	-0.000326822	0.00302787
12.8728	12.7293	7.05055e-05	0.00222467
12.8733	12.7298	0.000503574	0.00300108
12.8737	12.7303	0.000202948	0.00421368
12.8742	12.7308	-0.00139109	0.00379971
12.8747	12.7312	-0.000298411	0.00298256
12.8752	12.7317	7.88692e-06	0.00223434
12.8756	12.7322	0.000410012	0.00305729
12.8761	12.7327	0.000151262	0.0042526
12.8766	12.7331	-0.00141943	0.00374758
12.8771	12.7336	-0.000292276	0.00307565
12.8775	12.7341	9.40477e-05	0.00229023
12.878	12.7345	0.000404876	0.00308032
12.8785	12.735	9.22463e-05	0.00431848
12.8789	12.7355	-0.00143683	0.0038265
12.8794	12.736	-0.000374834	0.00296822
12.8799	12.7365	0.00021315	0.00227106
12.8804	12.7369	0.000376803	0.00295094
12.8808	12.7374	0.000242025	0.00420139
12.8813	12.7379	-0.00141509	0.00366163
12.8818	12.7384	-0.000352825	0.00299346
12.8822	12.7388	0.000256364	0.00222344
12.8827	12.7393	0.000411011	0.00297552
12.8832	12.7398	0.00028424	0.00423376
12.8837	12.7402	-0.00148492	0.00376283
12.8841	12.7407	-0.000402442	0.00288555
12.8846	12.7412	0.000137529	0.00219542
12.8851	12.7417	0.000133124	0.00301477
12.8856	12.7421	0.000179406	0.00432905
12.886	12.7426	-0.00147825	0.00385469
12.8865	12.7431	-0.000287674	0.00283589
12.887	12.7435	0.000219552	0.00240339
12.8874	12.744	0.00022542	0.00303812
12.8879	12.7445	0.000179673	0.00430619
12.8884	12.745	-0.00143097	0.00364794
12.8889	12.7454	-0.000278204	0.00284228
12.8893	12.7459	0.000424351	0.00244871
12.8898	12.7464	0.000267368	0.00305541
12.8903	12.7469	0.000315183	0.00429603
12.8907	12.7473	-0.00139109	0.00371194
12.8912	12.7478	-0.000288477	0.00283744
12.8917	12.7483	0.000451425	0.00241134
12.8922	12.7488	4.77659e-05	0.00312703
12.8926	12.7492	0.000213685	0.00437887
12.8931	12.7497	-0.00128725	0.0038083
12.8936	12.7501	-0.000220187	0.00290611
12.8941	12.7506	0.00048137	0.00246878
12.8945	12.7511	0.000130859	0.00322216
12.895	12.7516	0.000104784	0.0043742
12.8955	12.752	-0.00126731	0.00366958
12.8959	12.7525	-0.000325484	0.00284974
12.8964	12.753	0.000423816	0.00243502
12.8969	12.7534	0.000215218	0.00322168
12.8974	12.7539	0.000107317	0.00437216
12.8978	12.7544	-0.00108632	0.00355764
12.8983	12.7548	-0.00035056	0.0027895
12.8988	12.7553	0.000533252	0.00240372
