# 1304     AichiSR QXAFS
# Start     : 8.9544
# End       : 9.0544
# Dir       : Backward
# Points    : 300
# ScanTime  : 1.01549
# Date      : 13.04.23 23:29
# Ring Cur. : 1[mA]
12.7557	12.6123	0.000197812	0.00425727
12.7562	12.6128	-0.00136808	0.00366179
12.7566	12.6132	-0.000384037	0.00287792
12.7571	12.6137	0.000492838	0.00228416
12.7576	12.6142	0.000119587	0.00302379
12.7581	12.6147	0.000228024	0.00428874
12.7585	12.6151	-0.00136908	0.00362459
12.759	12.6156	-0.000438255	0.00279697
12.7595	12.6161	0.000371399	0.0023139
12.7599	12.6166	0.000212418	0.00310883
12.7604	12.617	0.000195279	0.00422442
12.7609	12.6175	-0.00133507	0.00366679
12.7614	12.618	-0.00034216	0.00274328
12.7618	12.6185	0.000494371	0.00234128
12.7623	12.6189	0.000164068	0.00311334
12.7628	12.6194	0.000179673	0.00416574
12.7632	12.6198	-0.00138902	0.00348307
12.7637	12.6203	-0.000344693	0.00255785
12.7642	12.6208	0.000544987	0.00234021
12.7647	12.6213	-3.38473e-06	0.00299002
12.7651	12.6218	-2.25929e-05	0.00419081
12.7656	12.6222	-0.00123797	0.00362426
12.7661	12.6227	-0.00053435	0.0027305
12.7666	12.6232	0.000563125	0.00231841
12.767	12.6236	-8.25365e-06	0.00301182
12.7675	12.6241	-1.35864e-05	0.00409912
12.768	12.6246	-0.00122924	0.00352855
12.7684	12.6251	-0.000441322	0.00250803
12.7689	12.6255	0.000640618	0.00243314
12.7694	12.626	-6.01356e-05	0.00320487
12.7699	12.6265	-6.72697e-05	0.00419688
12.7703	12.627	-0.00125458	0.00349816
12.7708	12.6275	-0.000536686	0.00261234
12.7713	12.6279	0.000514578	0.00242224
12.7717	12.6284	4.66959e-05	0.00320906
12.7722	12.6289	-0.000197447	0.00419892
12.7727	12.6293	-0.00104158	0.00364483
12.7732	12.6298	-0.000361297	0.0024923
12.7736	12.6303	0.000660825	0.00235374
12.7741	12.6307	-0.00011842	0.00313776
12.7746	12.6312	-0.000118955	0.00422909
12.7751	12.6317	-0.00113341	0.00355346
12.7755	12.6322	-0.000506277	0.0024596
12.776	12.6326	0.000763858	0.00238971
12.7765	12.6331	4.49658e-05	0.00319865
12.7769	12.6335	-0.000252129	0.00428825
12.7774	12.634	-0.00104752	0.00359828
12.7779	12.6345	-0.000444658	0.00246583
12.7784	12.635	0.000749519	0.00244436
12.7788	12.6354	-7.29411e-05	0.00317545
12.7793	12.6359	-0.000302477	0.00422007
12.7798	12.6364	-0.00108993	0.00355641
12.7802	12.6369	-0.00049934	0.0025018
12.7807	12.6374	0.000808338	0.00242707
12.7812	12.6378	-6.5272e-05	0.00329313
12.7817	12.6383	-0.000352897	0.00423908
12.7821	12.6388	-0.00108172	0.00358583
12.7826	12.6392	-0.000504209	0.00232636
12.7831	12.6397	0.00075799	0.00249107
12.7836	12.6401	-0.000109217	0.00333689
12.784	12.6406	-0.00041605	0.00415689
12.7845	12.6411	-0.00085265	0.00345816
12.785	12.6416	-0.000437185	0.00243019
12.7854	12.642	0.000813207	0.0025127
12.7859	12.6425	-5.45354e-06	0.00323708
12.7864	12.643	-0.000459461	0.00418754
12.7869	12.6434	-0.00111727	0.00363737
12.7873	12.6439	-0.000546691	0.00223434
12.7878	12.6444	0.00086302	0.00250819
12.7883	12.6448	4.21657e-05	0.00327649
12.7887	12.6453	-0.000510344	0.00415656
12.7892	12.6458	-0.000937277	0.00345038
12.7897	12.6463	-0.000629713	0.00229366
12.7902	12.6468	0.000980392	0.00261062
12.7906	12.6472	-5.73355e-05	0.00337098
12.7911	12.6477	-0.000440324	0.00421336
12.7916	12.6482	-0.000919407	0.0035701
12.7921	12.6487	-0.000631247	0.00235406
12.7925	12.6491	0.00100927	0.00267897
12.793	12.6496	8.61823e-06	0.00343948
12.7935	12.6501	-0.000531817	0.00435584
12.7939	12.6505	-0.000700001	0.00345956
12.7944	12.651	-0.000591636	0.00214732
12.7949	12.6515	0.000936911	0.00256187
12.7954	12.652	1.47535e-05	0.00342128
12.7958	12.6524	-0.000611843	0.00432111
12.7963	12.6529	-0.000650455	0.00340678
12.7968	12.6534	-0.000537685	0.00221893
12.7972	12.6538	0.00108983	0.00270436
12.7977	12.6543	-0.00011562	0.00357632
12.7982	12.6548	-0.000537685	0.00406889
12.7987	12.6553	-0.00068213	0.00343776
12.7991	12.6558	-0.000635849	0.00231407
12.7996	12.6562	0.0010975	0.00270871
12.8001	12.6567	3.28917e-05	0.00363033
12.8006	12.6572	-0.000654058	0.00422163
12.801	12.6577	-0.000826843	0.00347824
12.8015	12.6581	-0.000597771	0.00213985
12.802	12.6586	0.000983995	0.00281737
12.8024	12.6591	-0.000179309	0.00356199
12.8029	12.6595	-0.000651454	0.00411453
12.8034	12.66	-0.000693669	0.00342235
12.8039	12.6605	-0.000674461	0.00221394
12.8043	12.661	0.000908303	0.00269577
12.8048	12.6614	-0.000162633	0.00356403
12.8053	12.6619	-0.000801571	0.0040348
12.8057	12.6624	-0.000510611	0.00341441
12.8062	12.6628	-0.000682665	0.00219402
12.8067	12.6633	0.000961719	0.00263193
12.8072	12.6638	9.49192e-07	0.00352511
12.8076	12.6642	-0.000821974	0.00412542
12.8081	12.6647	-0.000651989	0.00335434
12.8086	12.6652	-0.000635117	0.00210839
12.8091	12.6657	0.000997799	0.00273829
12.8095	12.6661	-6.60034e-05	0.00355608
12.81	12.6666	-0.000783897	0.00407372
12.8105	12.6671	-0.000463063	0.0033182
12.8109	12.6676	-0.000595435	0.00220959
12.8114	12.668	0.000971457	0.00274108
12.8119	12.6685	-3.30621e-05	0.00361868
12.8124	12.669	-0.00105385	0.00401939
12.8128	12.6694	-0.000478669	0.00335229
12.8133	12.6699	-0.000592171	0.00208815
12.8138	12.6704	0.000999065	0.00275681
12.8142	12.6708	1.96224e-05	0.00373497
12.8147	12.6713	-0.00108072	0.00404635
12.8152	12.6718	-0.000507544	0.00335884
12.8157	12.6722	-0.00062158	0.00230005
12.8161	12.6727	0.000733182	0.00284711
12.8166	12.6732	-7.06048e-05	0.00375365
12.8171	12.6736	-0.0010155	0.00401021
12.8176	12.6741	-0.000433653	0.00321684
12.818	12.6746	-0.000448991	0.00207087
12.8185	12.6751	0.000820609	0.00275182
12.819	12.6755	9.01775e-05	0.00376299
12.8194	12.676	-0.000956682	0.00403931
12.8199	12.6765	-0.00035056	0.00328288
12.8204	12.677	-0.000532352	0.00223171
12.8209	12.6775	0.000869423	0.00278016
12.8213	12.6779	6.82404e-05	0.00380953
12.8218	12.6784	-0.0011216	0.00394466
12.8223	12.6789	-0.000361564	0.00322339
12.8227	12.6794	-0.000494471	0.00206464
12.8232	12.6798	0.000781996	0.0028127
12.8237	12.6803	-4.32637e-05	0.00386558
12.8242	12.6808	-0.00105131	0.00410535
12.8246	12.6812	-0.000484804	0.00323724
12.8251	12.6817	-0.000351095	0.00204349
12.8256	12.6822	0.000687435	0.00278918
12.8261	12.6826	-9.78746e-06	0.00382822
12.8265	12.6831	-0.00121623	0.00397752
12.827	12.6836	-0.000444658	0.00319537
12.8275	12.6841	-0.000361832	0.0021369
12.8279	12.6845	0.000644952	0.00268568
12.8284	12.685	-2.9727e-05	0.00386091
12.8289	12.6855	-0.0012295	0.00384395
12.8294	12.686	-0.000414713	0.00310351
12.8298	12.6865	-0.000332422	0.00204784
12.8303	12.6869	0.000620411	0.0027909
12.8308	12.6874	1.76248e-05	0.00383042
12.8312	12.6879	-0.00129626	0.00385436
12.8317	12.6884	-0.000396842	0.00310974
12.8322	12.6888	-0.000222452	0.00211929
12.8327	12.6893	0.000620946	0.00282064
12.8331	12.6897	4.84972e-05	0.00394122
12.8336	12.6902	-0.00128625	0.00386526
12.8341	12.6907	-0.000373567	0.00322275
12.8346	12.6912	-0.00017724	0.00225769
12.835	12.6916	0.000581799	0.00285441
12.8355	12.6921	5.5435e-05	0.00404398
12.836	12.6926	-0.00139515	0.00383895
12.8364	12.693	-0.000454057	0.00301198
12.8369	12.6935	-0.000121755	0.0022309
12.8374	12.694	0.000465497	0.00283777
12.8379	12.6944	6.9703e-05	0.00411592
12.8383	12.6949	-0.00126325	0.00385452
12.8388	12.6954	-0.000368698	0.00300994
12.8393	12.6959	-2.07916e-05	0.00216584
12.8397	12.6963	0.000635018	0.00297166
12.8402	12.6968	9.65803e-05	0.00407748
12.8407	12.6973	-0.00144197	0.00369916
12.8412	12.6978	-0.000185373	0.0030364
12.8416	12.6982	9.30488e-05	0.00215649
12.8421	12.6987	0.000386737	0.00286767
12.8426	12.6992	2.93602e-05	0.004214
12.8431	12.6996	-0.00130086	0.00373668
12.8435	12.7001	-0.00027947	0.0030632
12.844	12.7006	3.34267e-05	0.00222763
12.8445	12.701	0.000324386	0.00276959
12.8449	12.7015	0.000232358	0.00415033
12.8454	12.702	-0.00152119	0.00376422
12.8459	12.7025	-0.000458729	0.00303984
12.8464	12.7029	0.000150531	0.00222172
12.8468	12.7034	0.000438352	0.00287981
12.8473	12.7039	0.000170471	0.00401316
12.8478	12.7043	-0.00144811	0.00365385
12.8482	12.7048	-0.00033549	0.00289275
12.8487	12.7053	7.61058e-05	0.0021442
12.8492	12.7058	0.000360663	0.00283884
12.8497	12.7063	0.00021315	0.00412043
12.8501	12.7067	-0.00141816	0.0037348
12.8506	12.7072	-0.00043772	0.00284851
12.8511	12.7077	0.000173806	0.0021456
12.8516	12.7082	0.000260965	0.00297478
12.852	12.7086	0.000189144	0.00420466
12.8525	12.7091	-0.00135581	0.0036445
12.853	12.7096	-0.000347225	0.00283466
12.8534	12.71	7.5642e-05	0.00211913
12.8539	12.7105	0.000243362	0.00285457
12.8544	12.711	0.000236157	0.00416139
12.8549	12.7115	-0.00156721	0.00361852
12.8553	12.7119	-0.000320883	0.00279418
12.8558	12.7124	0.000257898	0.00218779
12.8563	12.7129	0.000101182	0.00286891
12.8567	12.7133	0.00024536	0.00417025
12.8572	12.7138	-0.00145931	0.00371784
12.8577	12.7143	-0.00034496	0.00273002
12.8582	12.7148	0.000226419	0.00218763
12.8586	12.7152	0.000267368	0.00301321
12.8591	12.7157	0.000123654	0.00416091
12.8596	12.7162	-0.00147085	0.00379864
12.8601	12.7167	-0.000372301	0.00277394
12.8605	12.7172	0.000402343	0.00220927
12.861	12.7176	0.000159466	0.0029788
12.8615	12.7181	0.00016207	0.00421916
12.8619	12.7186	-0.00141509	0.00365417
12.8624	12.719	-0.000424451	0.00273239
12.8629	12.7195	0.000355062	0.00227949
12.8634	12.72	1.22208e-05	0.0029883
12.8638	12.7204	0.000122923	0.00430119
12.8643	12.7209	-0.0014317	0.00369932
12.8648	12.7214	-0.00041218	0.00269781
12.8652	12.7218	0.00049924	0.00225597
12.8657	12.7223	0.00012599	0.00301386
12.8662	12.7228	3.62268e-05	0.00416247
12.8667	12.7232	-0.00136808	0.00359066
12.8671	12.7237	-0.000264935	0.00268085
12.8676	12.7242	0.000446823	0.00241011
12.8681	12.7246	9.81141e-05	0.00305181
12.8686	12.7251	9.55815e-05	0.00437576
12.869	12.7256	-0.00131467	0.00365589
12.8695	12.7261	-0.000291544	0.00265405
12.87	12.7265	0.000547056	0.00233865
12.8704	12.727	9.78466e-05	0.00321905
12.8709	12.7275	4.08282e-05	0.0043057
12.8714	12.728	-0.00117042	0.00359952
12.8719	12.7284	-0.000382235	0.00276288
12.8723	12.7289	0.000499508	0.00238396
12.8728	12.7294	-2.66593e-05	0.00307049
12.8733	12.7298	2.82902e-05	0.00425899
12.8737	12.7303	-0.00114514	0.00364606
12.8742	12.7308	-0.000471999	0.0026525
12.8747	12.7313	0.000633948	0.00244387
12.8752	12.7318	7.08442e-06	0.00311957
12.8756	12.7322	-3.61297e-05	0.00425915
12.8761	12.7327	-0.00118882	0.00359501
12.8766	12.7331	-0.000352094	0.00261309
12.8771	12.7336	0.000602273	0.00240339
12.8775	12.7341	5.75038e-05	0.0031426
12.878	12.7346	-0.000173905	0.00422581
12.8785	12.7351	-0.00114461	0.00358518
12.8789	12.7355	-0.000480934	0.00257358
12.8794	12.736	0.000666425	0.0025731
12.8799	12.7365	-1.05188e-05	0.00326044
12.8804	12.737	-0.000141427	0.00428578
12.8808	12.7375	-0.00110807	0.00353134
12.8813	12.7379	-0.000429052	0.00245166
12.8818	12.7384	0.000740048	0.0025331
12.8822	12.7389	-9.72145e-05	0.00324986
12.8827	12.7393	-0.000318618	0.00413723
12.8832	12.7398	-0.00104518	0.00352135
12.8837	12.7403	-0.000386373	0.00248344
12.8841	12.7407	0.000703504	0.00243502
12.8846	12.7412	-2.58568e-05	0.003281
12.8851	12.7417	-0.00017444	0.00424514
12.8856	12.7422	-0.000987625	0.00358518
12.886	12.7426	-0.000520617	0.00243969
12.8865	12.7431	0.000798137	0.00258309
12.887	12.7436	-8.31427e-05	0.00326092
12.8874	12.744	-0.000351292	0.00425932
12.8879	12.7445	-0.000894063	0.00353847
12.8884	12.745	-0.000516479	0.00233119
12.8889	12.7455	0.000931578	0.00253605
12.8893	12.7459	-5.21991e-05	0.00329297
12.8898	12.7464	-0.000511878	0.00418131
12.8903	12.7469	-0.000875658	0.00353601
12.8907	12.7474	-0.000494738	0.00233833
12.8912	12.7478	0.000952516	0.00253901
12.8917	12.7483	-7.08723e-05	0.00334918
12.8922	12.7488	-0.000484002	0.00424326
12.8926	12.7492	-0.000935744	0.00358771
12.8931	12.7497	-0.000570162	0.00221131
12.8936	12.7502	0.000865089	0.0026489
12.8941	12.7506	-1.10538e-05	0.00341162
12.8945	12.7511	-0.00044439	0.00423269
12.895	12.7516	-0.000795365	0.00349225
12.8955	12.7521	-0.00053542	0.00231326
12.8959	12.7525	0.000940781	0.00258883
12.8964	12.753	-3.07258e-05	0.00339138
12.8969	12.7534	-0.000465596	0.00428562
12.8974	12.7539	-0.000877191	0.00357321
12.8978	12.7544	-0.000555359	0.00218264
12.8983	12.7549	0.000988793	0.00267258
12.8988	12.7553	-9.6947e-05	0.00335745
