# 1304     AichiSR QXAFS
# Start     : 8.9544
# End       : 9.0544
# Dir       : Forward
# Points    : 300
# ScanTime  : 1.01549
# Date      : 13.04.23 23:27
# Ring Cur. : 1[mA]
12.7557	12.7562	0.000825745	0.00251286
12.7562	12.7557	-6.93385e-05	0.00341424
12.7566	12.7553	-0.000373567	0.00424359
12.7571	12.7548	-0.000907136	0.00358599
12.7576	12.7543	-0.000511878	0.00240683
12.7581	12.7538	0.000963253	0.00255646
12.7585	12.7534	-8.9278e-05	0.00343653
12.759	12.7529	-0.000465596	0.00425244
12.7595	12.7524	-0.00105691	0.00343202
12.7599	12.752	-0.000535884	0.00231235
12.7604	12.7515	0.000869156	0.00262045
12.7609	12.751	-0.000165237	0.0034376
12.7614	12.7506	-0.000531353	0.00420466
12.7618	12.7501	-0.000772625	0.00342235
12.7623	12.7496	-0.000606974	0.00232448
12.7628	12.7492	0.000914902	0.00259178
12.7632	12.7487	-9.10793e-05	0.00352559
12.7637	12.7482	-0.000569895	0.00423703
12.7642	12.7478	-0.000787232	0.00348463
12.7647	12.7473	-0.000559693	0.00220164
12.7651	12.7468	0.000966855	0.00268659
12.7656	12.7464	-0.000189778	0.00342907
12.7661	12.7459	-0.00054769	0.00422925
12.7666	12.7454	-0.00080257	0.00358534
12.767	12.7449	-0.000808705	0.00224803
12.7675	12.7444	0.00105121	0.00266447
12.768	12.744	-8.64778e-05	0.00361992
12.7684	12.7435	-0.0005799	0.00417009
12.7689	12.743	-0.000805637	0.00335197
12.7694	12.7426	-0.000731212	0.00233087
12.7699	12.7421	0.00103894	0.00271075
12.7703	12.7416	-0.000156766	0.0035869
12.7708	12.7412	-0.000609577	0.00419017
12.7713	12.7407	-0.000757822	0.00355313
12.7717	12.7402	-0.000701338	0.00221099
12.7722	12.7397	0.000990059	0.00271756
12.7727	12.7393	-6.50045e-05	0.00361418
12.7732	12.7388	-0.000747085	0.00412805
12.7736	12.7383	-0.00071154	0.00346004
12.7741	12.7379	-0.000618513	0.00214404
12.7746	12.7374	0.00106395	0.00271322
12.7751	12.7369	-0.000114086	0.00346595
12.7755	12.7364	-0.000775764	0.00422163
12.776	12.7359	-0.000597771	0.00340695
12.7765	12.7355	-0.000654789	0.0022563
12.7769	12.735	0.000941245	0.00268192
12.7774	12.7345	-9.97471e-05	0.00359189
12.7779	12.734	-0.000804104	0.00435445
12.7784	12.7335	-0.000529017	0.00344399
12.7788	12.7331	-0.000641984	0.00217706
12.7793	12.7326	0.000967854	0.00284523
12.7798	12.7321	-0.000126357	0.00369105
12.7802	12.7317	-0.000916072	0.0040879
12.7807	12.7312	-0.000604709	0.00330263
12.7812	12.7307	-0.000664991	0.00222188
12.7817	12.7302	0.000974257	0.00277206
12.7821	12.7298	-0.000162901	0.0036277
12.7826	12.7293	-0.000751419	0.00412526
12.7831	12.7288	-0.000602907	0.00342112
12.7836	12.7284	-0.000635117	0.0020626
12.784	12.7279	0.000967319	0.00285957
12.7845	12.7274	-8.10739e-05	0.00361787
12.785	12.727	-0.000893599	0.00422302
12.7854	12.7265	-0.000603639	0.00332631
12.7859	12.726	-0.000724542	0.00216895
12.7864	12.7255	0.000911103	0.00280663
12.7869	12.7251	-0.000183375	0.0037071
12.7873	12.7246	-0.00097309	0.00396866
12.7878	12.7241	-0.00053155	0.00333254
12.7883	12.7236	-0.000542019	0.00206448
12.7887	12.7232	0.00094738	0.00268814
12.7892	12.7227	-6.9606e-05	0.00371891
12.7897	12.7222	-0.000895865	0.00404103
12.7902	12.7218	-0.000522614	0.00331369
12.7906	12.7213	-0.000415248	0.00220025
12.7911	12.7208	0.000782799	0.00280803
12.7916	12.7204	8.02434e-05	0.00372841
12.7921	12.7199	-0.00115408	0.00408961
12.7925	12.7194	-0.000668593	0.00331353
12.793	12.719	-0.000477866	0.00222827
12.7935	12.7185	0.000828278	0.00283916
12.7939	12.718	-2.5393e-05	0.00368498
12.7944	12.7176	-0.00102651	0.00401488
12.7949	12.7171	-0.000372301	0.00324036
12.7954	12.7166	-0.000472534	0.00218108
12.7958	12.7161	0.000649286	0.00288603
12.7963	12.7157	9.93804e-05	0.00378946
12.7968	12.7152	-0.00113747	0.00406782
12.7972	12.7147	-0.000416782	0.00322651
12.7977	12.7142	-0.0003733	0.00217641
12.7982	12.7137	0.000682031	0.0028208
12.7987	12.7133	-6.44695e-05	0.00390016
12.7991	12.7128	-0.00118782	0.0040457
12.7996	12.7123	-0.000455127	0.00306336
12.8001	12.7119	-0.00046713	0.00212241
12.8006	12.7114	0.000734715	0.00286563
12.801	12.7109	3.21603e-05	0.00400071
12.8015	12.7105	-0.0012203	0.00394187
12.802	12.71	-0.000387372	0.00319397
12.8024	12.7095	-0.000356696	0.00211306
12.8029	12.7091	0.000472434	0.00294315
12.8034	12.7086	7.66408e-05	0.00388427
12.8039	12.7081	-0.00126812	0.00387165
12.8043	12.7076	-0.000385303	0.003163
12.8048	12.7072	-0.000334687	0.00213781
12.8053	12.7067	0.000544987	0.00281549
12.8057	12.7062	-7.64725e-05	0.00389876
12.8062	12.7057	-0.00127398	0.00383412
12.8067	12.7052	-0.000431852	0.00303378
12.8072	12.7047	-0.000268466	0.00211011
12.8076	12.7043	0.000571062	0.00281909
12.8081	12.7038	0.000103447	0.0040275
12.8086	12.7033	-0.00136321	0.00388566
12.8091	12.7029	-0.000425717	0.00310507
12.8095	12.7024	-0.000219117	0.00212412
12.81	12.7019	0.000505376	0.00283654
12.8105	12.7015	-7.21386e-05	0.00409257
12.8109	12.701	-0.00128345	0.0038564
12.8114	12.7005	-0.000398108	0.00310416
12.8119	12.7	-0.000282538	0.00223697
12.8124	12.6996	0.00051358	0.00280352
12.8128	12.6991	4.74984e-05	0.0040829
12.8133	12.6987	-0.00141156	0.00379134
12.8138	12.6982	-0.000410646	0.00305106
12.8142	12.6977	-7.08723e-05	0.00218001
12.8147	12.6972	0.000427883	0.00289645
12.8152	12.6968	7.05055e-05	0.00404618
12.8157	12.6963	-0.00137322	0.00381528
12.8161	12.6958	-0.000480738	0.00306754
12.8166	12.6953	-0.000117422	0.00213642
12.8171	12.6949	0.000418947	0.00294315
12.8176	12.6944	7.35732e-05	0.00411125
12.818	12.6939	-0.00138369	0.00380175
12.8185	12.6934	-0.000406312	0.00297478
12.819	12.693	1.09545e-05	0.00223106
12.8194	12.6925	0.000446556	0.00283294
12.8199	12.6921	9.99154e-05	0.00417336
12.8204	12.6916	-0.00140102	0.00387197
12.8209	12.6911	-0.000329354	0.00301681
12.8213	12.6906	9.15323e-06	0.00211897
12.8218	12.6902	0.000412081	0.00296044
12.8223	12.6897	4.2897e-05	0.00410019
12.8227	12.6892	-0.00141356	0.00385141
12.8232	12.6888	-0.000311948	0.00293306
12.8237	12.6883	3.59593e-05	0.00222656
12.8242	12.6878	0.000379603	0.00285661
12.8246	12.6874	0.000185809	0.00413288
12.8251	12.6869	-0.00144217	0.0037507
12.8256	12.6864	-0.000460994	0.0029184
12.8261	12.6859	8.12422e-05	0.00218951
12.8265	12.6854	0.000300577	0.00292431
12.827	12.685	0.000144931	0.00424063
12.8275	12.6845	-0.00140696	0.00378307
12.8279	12.684	-0.000325021	0.00295266
12.8284	12.6835	0.000206747	0.00215838
12.8289	12.6831	0.000210082	0.00295077
12.8294	12.6826	0.00016767	0.00418721
12.8298	12.6821	-0.00135988	0.00375242
12.8303	12.6817	-0.000309415	0.00283466
12.8308	12.6812	0.000265567	0.00221705
12.8312	12.6807	0.000220355	0.00289366
12.8317	12.6802	0.000140062	0.00421958
12.8322	12.6798	-0.00147518	0.00370678
12.8327	12.6793	-0.000325021	0.00282794
12.8331	12.6788	8.2776e-05	0.00228088
12.8336	12.6784	0.000140597	0.00296527
12.8341	12.6779	0.000143861	0.00429882
12.8346	12.6774	-0.00143584	0.00368842
12.835	12.6769	-0.000403976	0.00272363
12.8355	12.6764	0.000353992	0.002343
12.836	12.676	0.000133659	0.00296634
12.8364	12.6755	0.000230557	0.00426694
12.8369	12.675	-0.00145117	0.00364746
12.8374	12.6745	-0.000346958	0.00285785
12.8379	12.674	0.000265834	0.00215075
12.8383	12.6736	0.000171737	0.00291078
12.8388	12.6731	0.000178871	0.0043166
12.8393	12.6726	-0.00140083	0.00352806
12.8397	12.6722	-0.000384304	0.00272272
12.8402	12.6717	0.000422283	0.0022985
12.8407	12.6712	1.88911e-05	0.00302878
12.8412	12.6708	0.000174073	0.00416558
12.8416	12.6703	-0.00140309	0.00367237
12.8421	12.6698	-0.000309415	0.00278639
12.8426	12.6694	0.000438156	0.00228556
12.8431	12.6689	0.000103714	0.00304558
12.8435	12.6684	0.000100183	0.0043093
12.844	12.668	-0.00142537	0.00373357
12.8445	12.6675	-0.000368698	0.00267601
12.8449	12.667	0.000479301	0.00222033
12.8454	12.6666	0.000115253	0.00313277
12.8459	12.6661	9.65803e-05	0.00423236
12.8464	12.6656	-0.00132027	0.00359189
12.8468	12.6651	-0.00039991	0.00262324
12.8473	12.6646	0.000421284	0.00219493
12.8478	12.6642	-7.82738e-05	0.00306427
12.8482	12.6637	-3.53272e-05	0.00426989
12.8487	12.6632	-0.00130466	0.00367687
12.8492	12.6628	-0.0003705	0.0025731
12.8497	12.6623	0.000554725	0.00223434
12.8501	12.6619	-7.21386e-05	0.00315457
12.8506	12.6614	7.33057e-05	0.00424359
12.8511	12.6609	-0.00130926	0.00350315
12.8516	12.6604	-0.000391973	0.00269625
12.852	12.6599	0.000540118	0.00235701
12.8525	12.6595	-4.63313e-05	0.00314711
12.853	12.659	-4.60638e-05	0.00432594
12.8534	12.6586	-0.00126505	0.00368826
12.8539	12.6581	-0.000443391	0.00256236
12.8544	12.6576	0.000539387	0.00235529
12.8549	12.6571	-7.18366e-06	0.00319349
12.8553	12.6567	-0.000188512	0.00423924
12.8558	12.6562	-0.00119162	0.00344383
12.8563	12.6557	-0.00052108	0.00250008
12.8567	12.6552	0.000554725	0.00243674
12.8572	12.6547	-6.01356e-05	0.00322914
12.8577	12.6543	-0.000218653	0.00431504
12.8582	12.6538	-0.0012313	0.00366818
12.8586	12.6533	-0.000430318	0.00254089
12.8591	12.6529	0.000608141	0.00257031
12.8596	12.6524	-0.000171836	0.00314603
12.8601	12.6519	-0.000201246	0.00420917
12.8605	12.6515	-0.00111573	0.00358722
12.861	12.651	-0.000467665	0.00241601
12.8615	12.6505	0.000740583	0.00247271
12.8619	12.65	-9.82133e-05	0.00327289
12.8624	12.6495	-0.000188708	0.00422974
12.8629	12.6491	-0.00106612	0.00350004
12.8634	12.6486	-0.000496807	0.00246395
12.8638	12.6481	0.000781194	0.00248747
12.8643	12.6477	-0.000166236	0.00325716
12.8648	12.6472	-0.000159102	0.00423752
12.8652	12.6467	-0.00112701	0.00349832
12.8657	12.6462	-0.000390707	0.00238847
12.8662	12.6457	0.000878091	0.00253901
12.8667	12.6453	-6.9606e-05	0.00324068
12.8671	12.6448	-0.000384037	0.00421884
12.8676	12.6443	-0.00101397	0.00355174
12.8681	12.6438	-0.000523149	0.00233333
12.8686	12.6434	0.000764125	0.0025141
12.869	12.6429	1.52885e-05	0.00334295
12.8695	12.6424	-0.000490672	0.00411157
12.87	12.642	-0.000922207	0.00344104
12.8704	12.6415	-0.000593437	0.00236324
12.8709	12.641	0.000833147	0.00244436
12.8714	12.6406	-0.00017057	0.00327182
12.8719	12.6401	-0.000489405	0.00419704
12.8723	12.6396	-0.000891798	0.00362271
12.8728	12.6392	-0.00053435	0.00237102
12.8733	12.6387	0.000913636	0.00252344
12.8737	12.6382	-0.000163703	0.00337081
12.8742	12.6378	-0.000396307	0.00417959
12.8747	12.6373	-0.00102577	0.00348962
12.8752	12.6368	-0.000531086	0.00247083
12.8756	12.6363	0.000994464	0.00259629
12.8761	12.6359	-0.000125626	0.00326978
12.8766	12.6354	-0.000481469	0.00419844
12.8771	12.6349	-0.000792564	0.00362271
12.8775	12.6344	-0.000571429	0.00223074
12.878	12.634	0.001008	0.00257809
12.8785	12.6335	-0.000208647	0.00341736
12.8789	12.633	-0.00050601	0.00417476
12.8794	12.6326	-0.000718407	0.00352044
12.8799	12.6321	-0.000528482	0.00236979
12.8804	12.6316	0.000901169	0.00260316
12.8808	12.6312	-6.9071e-05	0.00341908
12.8813	12.6307	-0.000649385	0.00422474
12.8818	12.6302	-0.000772625	0.00356371
12.8822	12.6297	-0.000631247	0.00233333
12.8827	12.6293	0.00103047	0.00270667
12.8832	12.6288	-0.000151165	0.00344431
12.8837	12.6283	-0.000567362	0.00416697
12.8841	12.6279	-0.000861853	0.00347947
12.8846	12.6274	-0.000657054	0.00226999
12.8851	12.6269	0.000965322	0.00268068
12.8856	12.6264	-0.00018004	0.00349569
12.886	12.6259	-0.000544088	0.00418786
12.8865	12.6255	-0.000763422	0.00342268
12.887	12.625	-0.00078823	0.00227015
12.8874	12.6245	0.00102894	0.00273985
12.8879	12.624	-9.92121e-05	0.00351077
12.8884	12.6236	-0.000717408	0.00433389
12.8889	12.6231	-0.000719477	0.00348012
12.8893	12.6226	-0.000734547	0.00216616
12.8898	12.6222	0.000955049	0.00265422
12.8903	12.6217	-0.000138627	0.00351749
12.8907	12.6212	-0.000771091	0.00412559
12.8912	12.6207	-0.000666061	0.00336163
12.8917	12.6202	-0.000659926	0.0021442
12.8922	12.6198	0.000955316	0.00258695
12.8926	12.6193	-0.000123824	0.00361353
12.8931	12.6188	-0.000815572	0.00402439
12.8936	12.6184	-0.000796702	0.00339293
12.8941	12.6179	-0.00069647	0.00215854
12.8945	12.6174	0.000920574	0.00260874
12.895	12.617	-0.00020558	0.00356698
12.8955	12.6165	-0.000939881	0.00411764
12.8959	12.616	-0.000733013	0.00351077
12.8964	12.6155	-0.000642786	0.00221238
12.8969	12.6151	0.000989328	0.0026357
12.8974	12.6146	-0.000186443	0.0035374
12.8978	12.6141	-0.000755486	0.00407807
12.8983	12.6136	-0.000581969	0.00332287
12.8988	12.6132	-0.00048887	0.00211151
