# 1304     AichiSR QXAFS
# Start     : 8.9544
# End       : 9.0544
# Dir       : Backward
# Points    : 300
# ScanTime  : 1.01549
# Date      : 13.04.23 23:01
# Ring Cur. : 0.9[mA]
12.7557	12.6122	0.000916436	0.00281409
12.7562	12.6126	-6.09381e-05	0.0038047
12.7566	12.6131	-0.0010035	0.00411264
12.7571	12.6135	-0.000369697	0.00332115
12.7576	12.614	-0.000553558	0.00206743
12.7581	12.6145	0.00071631	0.00281613
12.7585	12.615	-6.57359e-05	0.00381592
12.759	12.6154	-0.00112827	0.00411436
12.7595	12.6159	-0.000480666	0.00326355
12.7599	12.6164	-0.00041498	0.00213142
12.7604	12.6169	0.000730845	0.00280368
12.7609	12.6174	-3.07258e-05	0.00381609
12.7614	12.6178	-0.00106078	0.00410781
12.7618	12.6183	-0.000404244	0.00324659
12.7623	12.6188	-0.000539486	0.00206759
12.7628	12.6192	0.000746718	0.00285146
12.7632	12.6197	3.95619e-05	0.00389017
12.7637	12.6202	-0.00117302	0.00408929
12.7642	12.6206	-0.000557892	0.00325126
12.7647	12.6211	-0.000315818	0.00211151
12.7651	12.6216	0.000688969	0.00288555
12.7656	12.6221	-9.51996e-06	0.00400087
12.7661	12.6225	-0.00113187	0.00402095
12.7666	12.623	-0.000318083	0.00311597
12.767	12.6235	-0.0002644	0.00216567
12.7675	12.6239	0.000610673	0.00284104
12.768	12.6244	2.67564e-05	0.00394048
12.7684	12.6249	-0.00124051	0.00398981
12.7689	12.6254	-0.000410646	0.00322135
12.7694	12.6259	-0.000284339	0.00228277
12.7699	12.6263	0.000633217	0.0029184
12.7703	12.6268	3.0359e-05	0.00389361
12.7708	12.6273	-0.00118682	0.00398251
12.7713	12.6278	-0.000325752	0.00319569
12.7717	12.6282	-0.000120489	0.00221738
12.7722	12.6287	0.000597404	0.0029198
12.7727	12.6292	1.90874e-05	0.00402406
12.7732	12.6296	-0.00134381	0.00387616
12.7736	12.6301	-0.000345959	0.00307844
12.7741	12.6306	-7.36724e-05	0.00217969
12.7746	12.6311	0.000428685	0.00290283
12.7751	12.6315	0.000107049	0.00408199
12.7755	12.632	-0.00139515	0.00391819
12.776	12.6325	-0.000283073	0.00312203
12.7765	12.6329	-3.38473e-06	0.0022549
12.7769	12.6334	0.000395673	0.00289022
12.7774	12.6339	0.000160001	0.00403824
12.7779	12.6343	-0.00133407	0.0039263
12.7784	12.6348	-0.000336489	0.00315538
12.7788	12.6353	2.7505e-06	0.00225597
12.7793	12.6358	0.000485704	0.00292635
12.7798	12.6362	3.39617e-05	0.00411141
12.7802	12.6367	-0.00137061	0.00382715
12.7807	12.6372	-0.000415515	0.00309245
12.7812	12.6377	1.5021e-05	0.00217673
12.7817	12.6381	0.000421748	0.00296822
12.7821	12.6386	0.000193745	0.00414362
12.7826	12.6391	-0.00139849	0.00376143
12.7831	12.6395	-0.000379168	0.00290922
12.7836	12.64	4.46983e-05	0.00230284
12.784	12.6405	0.000336122	0.00292635
12.7845	12.6409	0.000166137	0.00416558
12.785	12.6414	-0.00139902	0.00386279
12.7854	12.6419	-0.000417317	0.00290193
12.7859	12.6423	0.000147463	0.00218779
12.7864	12.6428	0.000191409	0.00304763
12.7869	12.6433	0.00018094	0.00426383
12.7873	12.6437	-0.0015258	0.00376315
12.7878	12.6442	-0.000296342	0.00294643
12.7883	12.6447	0.000111383	0.00211602
12.7887	12.6452	0.000236692	0.00305074
12.7892	12.6456	0.000178871	0.00423081
12.7897	12.6461	-0.00144297	0.00369948
12.7902	12.6466	-0.000363366	0.00292184
12.7906	12.6471	0.00018761	0.0023044
12.7911	12.6476	0.000161999	0.0030523
12.7916	12.648	0.000139527	0.00424998
12.7921	12.6485	-0.00151046	0.00374554
12.7925	12.649	-0.000294344	0.00289849
12.793	12.6494	0.000317984	0.0022527
12.7935	12.6499	0.000252761	0.00303034
12.7939	12.6504	0.000107317	0.00423129
12.7944	12.6509	-0.00137395	0.00381592
12.7949	12.6514	-0.000375369	0.00285661
12.7954	12.6518	0.000293175	0.00238225
12.7958	12.6523	8.55761e-05	0.00305541
12.7963	12.6528	9.37802e-05	0.00425776
12.7968	12.6532	-0.00140209	0.00365138
12.7972	12.6537	-0.000391438	0.00275992
12.7977	12.6542	0.000363463	0.00239561
12.7982	12.6546	0.000120122	0.00304886
12.7987	12.6551	0.000123654	0.00428497
12.7991	12.6556	-0.00136781	0.00368326
12.7996	12.6561	-0.000399375	0.00275058
12.8001	12.6566	0.000397474	0.00237446
12.8006	12.657	4.06319e-05	0.00307066
12.801	12.6575	-2.20579e-05	0.0043116
12.8015	12.658	-0.00137348	0.00378339
12.802	12.6585	-0.000411913	0.00282204
12.8024	12.6589	0.000549589	0.00240576
12.8029	12.6594	-1.48527e-05	0.003158
12.8034	12.6599	2.24225e-05	0.0042839
12.8039	12.6603	-0.00126198	0.00359984
12.8043	12.6608	-0.000509809	0.00265438
12.8048	12.6613	0.000635749	0.00253761
12.8053	12.6618	0.000164068	0.00331976
12.8057	12.6622	-9.05443e-05	0.00433979
12.8062	12.6627	-0.00118756	0.00369776
12.8067	12.6631	-0.00044999	0.00271461
12.8072	12.6636	0.000522515	0.00246723
12.8076	12.6641	7.20393e-05	0.00313884
12.8081	12.6645	-0.000136024	0.00422474
12.8086	12.665	-0.00109959	0.0036758
12.8091	12.6655	-0.000527483	0.0024909
12.8095	12.666	0.000594604	0.00245059
12.81	12.6665	2.16912e-05	0.00328411
12.8105	12.6669	-8.36777e-05	0.00422539
12.8109	12.6674	-0.00112981	0.00353461
12.8114	12.6679	-0.000458194	0.00262356
12.8119	12.6683	0.000691769	0.00243174
12.8124	12.6688	-0.000125554	0.00323397
12.8128	12.6693	-0.000207916	0.00428718
12.8133	12.6697	-0.00110013	0.00353273
12.8138	12.6702	-0.0004766	0.00249869
12.8142	12.6707	0.000832344	0.00251533
12.8147	12.6711	1.14183e-05	0.00326575
12.8152	12.6716	-0.000249061	0.00430259
12.8157	12.6721	-0.00101397	0.00358443
12.8161	12.6725	-0.000467932	0.0025622
12.8166	12.673	0.000848217	0.00247222
12.8171	12.6735	-4.68663e-05	0.00323118
12.8176	12.674	-0.00038664	0.00424482
12.818	12.6744	-0.000913271	0.00369137
12.8185	12.6749	-0.000569895	0.00251254
12.819	12.6754	0.000826744	0.00252049
12.8194	12.6759	-7.36724e-05	0.00330296
12.8199	12.6764	-0.000362028	0.00422458
12.8204	12.6768	-0.000977959	0.00374275
12.8209	12.6773	-0.000439521	0.00235111
12.8213	12.6778	0.000902899	0.00248296
12.8218	12.6783	-6.98735e-05	0.00338048
12.8223	12.6787	-0.000329818	0.00421975
12.8227	12.6792	-0.000945749	0.00366195
12.8232	12.6797	-0.000499607	0.00244436
12.8237	12.6801	0.000972723	0.00270216
12.8242	12.6806	9.15323e-06	0.00337908
12.8246	12.6811	-0.000373567	0.00427129
12.8251	12.6816	-0.000920138	0.00341564
12.8256	12.682	-0.000609042	0.00235062
12.8261	12.6825	0.00089803	0.00266012
12.8265	12.683	1.93549e-05	0.00345644
12.827	12.6834	-0.000601641	0.0042803
12.8275	12.6839	-0.000824043	0.00347201
12.8279	12.6844	-0.000555092	0.00225442
12.8284	12.6849	0.00101594	0.00262635
12.8289	12.6853	-7.46712e-05	0.00359345
12.8294	12.6858	-0.000731747	0.00422286
12.8298	12.6863	-0.000826843	0.00356183
12.8303	12.6868	-0.000669128	0.00217239
12.8308	12.6873	0.000905967	0.00269609
12.8312	12.6877	-2.9192e-05	0.00362426
12.8317	12.6882	-0.000569895	0.0042467
12.8322	12.6887	-0.000789497	0.00357461
12.8327	12.6891	-0.000656591	0.00230408
12.8331	12.6896	0.00109363	0.00273485
12.8336	12.6901	-0.000120757	0.00350782
12.8341	12.6905	-0.000631782	0.00416467
12.8346	12.691	-0.00069927	0.0035038
12.835	12.6915	-0.000652524	0.00233989
12.8355	12.692	0.000936179	0.00272862
12.836	12.6924	-0.000115085	0.00354535
12.8364	12.6929	-0.00070034	0.00428251
12.8369	12.6933	-0.000783165	0.00351003
12.8374	12.6938	-0.000700268	0.00219058
12.8379	12.6943	0.000952516	0.00278172
12.8383	12.6948	-0.000114354	0.00363967
12.8388	12.6952	-0.000692403	0.00425105
12.8393	12.6957	-0.0005771	0.00345005
12.8397	12.6962	-0.000668861	0.00222656
12.8402	12.6967	0.000942315	0.00280491
12.8407	12.6971	-0.000141695	0.00362426
12.8412	12.6976	-0.000807902	0.00416526
12.8416	12.6981	-0.000601641	0.00340244
12.8421	12.6986	-0.000611575	0.00215338
12.8426	12.699	0.000941512	0.00278483
12.8431	12.6995	-0.000208184	0.00367441
12.8435	12.6999	-0.000913271	0.00415484
12.844	12.7004	-0.000527483	0.00347013
12.8445	12.7009	-0.000538951	0.00225753
12.8449	12.7014	0.00091624	0.00273641
12.8454	12.7018	-5.73355e-05	0.00369572
12.8459	12.7023	-0.000930143	0.00414722
12.8464	12.7028	-0.000568896	0.00333672
12.8468	12.7032	-0.000497806	0.00212863
12.8473	12.7037	0.000923641	0.00277517
12.8478	12.7042	-0.000137094	0.00378946
12.8482	12.7047	-0.000948281	0.00406938
12.8487	12.7051	-0.000583699	0.00335557
12.8492	12.7056	-0.000548956	0.0022236
12.8497	12.7061	0.00091517	0.00282483
12.8501	12.7066	-0.000101816	0.00380675
12.8506	12.7071	-0.0010994	0.00409133
12.8511	12.7075	-0.000567362	0.00335573
12.8516	12.708	-0.000531817	0.00212117
12.852	12.7085	0.000866623	0.00286252
12.8525	12.709	-1.7189e-05	0.00388829
12.853	12.7094	-0.00107892	0.00414206
12.8534	12.7099	-0.000497806	0.00329608
12.8539	12.7104	-0.000449794	0.00215617
12.8544	12.7108	0.000708908	0.00275992
12.8549	12.7113	-1.07863e-05	0.00384583
12.8553	12.7118	-0.00100583	0.004096
12.8558	12.7123	-0.000476065	0.00328755
12.8563	12.7127	-0.00025393	0.00225409
12.8567	12.7132	0.000680497	0.0029933
12.8572	12.7137	-2.99945e-05	0.00390139
12.8577	12.7141	-0.00119169	0.00394187
12.8582	12.7146	-0.000489869	0.003281
12.8586	12.7151	-0.000231387	0.00218124
12.8591	12.7156	0.000754655	0.00284351
12.8596	12.716	0.000102181	0.00396973
12.8601	12.7165	-0.00123284	0.00407716
12.8605	12.717	-0.00049654	0.00311941
12.861	12.7175	-0.000330888	0.0022513
12.8615	12.7179	0.000581335	0.00279197
12.8619	12.7184	2.7505e-06	0.00402471
12.8624	12.7189	-0.0012221	0.00401784
12.8629	12.7193	-0.000425182	0.00323832
12.8634	12.7198	-0.000168037	0.00226097
12.8638	12.7203	0.000499775	0.00294085
12.8643	12.7207	2.01919e-06	0.00396088
12.8648	12.7212	-0.0013246	0.00391041
12.8652	12.7217	-0.000362296	0.00310523
12.8657	12.7222	-0.000169036	0.00212224
12.8662	12.7226	0.000512777	0.00294487
12.8667	12.7231	0.000121389	0.0041237
12.8671	12.7235	-0.00126398	0.00395293
12.8676	12.724	-0.000423719	0.00308811
12.8681	12.7245	-8.54079e-05	0.00234627
12.8686	12.725	0.000444291	0.00285006
12.869	12.7254	8.76449e-05	0.00413428
12.8695	12.7259	-0.00135374	0.00390279
12.87	12.7264	-0.000371302	0.00298691
12.8704	12.7269	6.08561e-06	0.00231965
12.8709	12.7273	0.000503574	0.00290922
12.8714	12.7278	5.13685e-05	0.00404103
12.8719	12.7283	-0.0014253	0.00382043
12.8723	12.7288	-0.00031168	0.00305106
12.8728	12.7292	3.5228e-05	0.00222467
12.8733	12.7297	0.00042922	0.00300698
12.8737	12.7302	6.74379e-05	0.00423097
12.8742	12.7306	-0.00145524	0.00381421
12.8747	12.7311	-0.000343694	0.00298084
12.8752	12.7316	0.000163533	0.00233554
12.8756	12.7321	0.000432752	0.00298036
12.8761	12.7325	0.000174002	0.00411264
12.8766	12.733	-0.00142763	0.00373325
12.8771	12.7335	-0.000256998	0.00299297
12.8775	12.7339	9.14438e-05	0.0023961
12.878	12.7344	0.000574129	0.00292463
12.8785	12.7349	0.000223155	0.0043152
12.8789	12.7354	-0.00146651	0.00377856
12.8794	12.7359	-0.000319884	0.0029089
12.8799	12.7363	0.000138261	0.00223139
12.8804	12.7368	0.000269633	0.00301616
12.8808	12.7373	0.000212882	0.00416902
12.8813	12.7378	-0.00151586	0.00372144
12.8818	12.7383	-0.000361564	0.00281065
12.8822	12.7387	0.000172272	0.00236635
12.8827	12.7392	0.000279371	0.00307672
12.8832	12.7397	0.000251762	0.00433872
12.8837	12.7401	-0.00134227	0.00373497
12.8841	12.7406	-0.000389708	0.00286391
12.8846	12.7411	0.000275304	0.00240995
12.8851	12.7416	0.000202948	0.00311597
12.8856	12.742	0.000269169	0.0043261
12.886	12.7425	-0.00134861	0.00391025
12.8865	12.7429	-0.000429052	0.00284974
12.887	12.7434	0.000374734	0.00228572
12.8874	12.7439	0.000148997	0.00309294
12.8879	12.7444	0.000187342	0.00429496
12.8884	12.7448	-0.00133127	0.00377824
12.8889	12.7453	-0.000334223	0.00287809
12.8893	12.7458	0.000401077	0.00234735
12.8898	12.7463	0.00016487	0.00311081
12.8903	12.7467	0.000164068	0.00429931
12.8907	12.7472	-0.00128219	0.00378978
12.8912	12.7477	-0.00024166	0.00277893
12.8917	12.7482	0.000439886	0.00240995
12.8922	12.7486	1.70898e-05	0.00311613
12.8926	12.7491	0.00019881	0.00435552
12.8931	12.7496	-0.0014241	0.00370399
12.8936	12.75	-0.000433653	0.00268208
12.8941	12.7505	0.000496975	0.00238954
12.8945	12.751	5.18323e-05	0.003139
12.895	12.7514	7.20393e-05	0.00417181
12.8955	12.7519	-0.00122924	0.00362164
12.8959	12.7524	-0.000497075	0.00269282
12.8964	12.7528	0.000523781	0.00240978
12.8969	12.7533	-7.98616e-06	0.00314072
12.8974	12.7538	-1.28551e-05	0.00431144
12.8978	12.7542	-0.00130213	0.00361353
12.8983	12.7547	-0.000349294	0.00269937
12.8988	12.7552	0.00063195	0.00233677
