# 1304     AichiSR QXAFS
# Start     : 8.9544
# End       : 9.0544
# Dir       : Backward
# Points    : 300
# ScanTime  : 1.01549
# Date      : 13.04.23 23:03
# Ring Cur. : 0.9[mA]
12.7557	12.6122	0.000146928	0.00298428
12.7562	12.6126	8.58436e-05	0.0041673
12.7566	12.6131	-0.00146551	0.00364499
12.7571	12.6136	-0.000330086	0.00267618
12.7576	12.614	0.000348392	0.00229055
12.7581	12.6145	8.61111e-05	0.00308655
12.7585	12.615	0.00021315	0.00418303
12.759	12.6155	-0.00149485	0.00364966
12.7595	12.6159	-0.000318618	0.0026366
12.7599	12.6164	0.000376001	0.00242707
12.7604	12.6169	2.29575e-05	0.00301821
12.7609	12.6174	2.7505e-06	0.00424638
12.7614	12.6178	-0.00135167	0.00367768
12.7618	12.6183	-0.000377705	0.00272068
12.7623	12.6188	0.000441687	0.00233398
12.7628	12.6193	3.67618e-05	0.00314915
12.7632	12.6197	2.72914e-05	0.00408462
12.7637	12.6202	-0.00131106	0.00355346
12.7642	12.6207	-0.000452594	0.00259226
12.7647	12.6212	0.000503842	0.00235594
12.7651	12.6216	2.376e-05	0.00315752
12.7656	12.6221	-2.69268e-05	0.00424498
12.7661	12.6226	-0.00132947	0.00358846
12.7666	12.623	-0.000480934	0.00269872
12.767	12.6235	0.000553191	0.00231686
12.7675	12.624	-6.16694e-05	0.00316391
12.768	12.6244	8.55761e-05	0.00426743
12.7684	12.6249	-0.00126532	0.00360312
12.7689	12.6254	-0.000452059	0.00269813
12.7694	12.6259	0.000490038	0.00231079
12.7699	12.6264	-6.19369e-05	0.00320922
12.7703	12.6268	4.90322e-05	0.00426678
12.7708	12.6273	-0.00124024	0.00350535
12.7713	12.6278	-0.000505742	0.00256204
12.7717	12.6283	0.00059307	0.00240871
12.7722	12.6287	-3.55947e-05	0.00319988
12.7727	12.6292	-3.55947e-05	0.00418754
12.7732	12.6297	-0.00116788	0.00363189
12.7736	12.6301	-0.000431388	0.00263816
12.7741	12.6306	0.000691769	0.00239765
12.7746	12.6311	-6.18485e-06	0.00304467
12.7751	12.6316	-0.000157836	0.00425105
12.7755	12.632	-0.00113594	0.00354567
12.776	12.6325	-0.000555092	0.00246787
12.7765	12.633	0.000494906	0.00247517
12.7769	12.6334	-8.95455e-05	0.003217
12.7774	12.6339	-0.000227588	0.00418582
12.7779	12.6344	-0.00117068	0.00343637
12.7784	12.6348	-0.000382039	0.0024224
12.7788	12.6353	0.000638549	0.00234177
12.7793	12.6358	2.42238e-05	0.00319848
12.7798	12.6363	-0.000178506	0.00414673
12.7802	12.6367	-0.0012083	0.00344211
12.7807	12.6372	-0.00051441	0.00241306
12.7812	12.6377	0.000674897	0.00253852
12.7817	12.6382	-9.31481e-05	0.00316735
12.7821	12.6386	-0.000189243	0.00414566
12.7826	12.6391	-0.000965688	0.00357804
12.7831	12.6395	-0.000626646	0.00240806
12.7836	12.64	0.000863555	0.00245198
12.784	12.6405	-2.30567e-05	0.00326994
12.7845	12.641	-0.0003649	0.00422893
12.785	12.6414	-0.000949548	0.00350814
12.7854	12.6419	-0.000468931	0.00237258
12.7859	12.6424	0.000687435	0.00257965
12.7864	12.6428	1.21669e-06	0.00323429
12.7869	12.6433	-0.000329087	0.0041142
12.7873	12.6438	-0.000962353	0.00353461
12.7878	12.6442	-0.000541287	0.0022985
12.7883	12.6447	0.000806002	0.00263586
12.7887	12.6452	2.03537e-05	0.00338483
12.7892	12.6457	-0.000391973	0.00415436
12.7897	12.6461	-0.000971556	0.00346874
12.7902	12.6466	-0.000532085	0.00241478
12.7906	12.6471	0.000857955	0.00264364
12.7911	12.6476	-0.000126624	0.00329813
12.7916	12.6481	-0.000478669	0.0041623
12.7921	12.6485	-0.000922474	0.00361541
12.7925	12.649	-0.000626646	0.00229039
12.793	12.6495	0.000940513	0.00268814
12.7935	12.6499	-6.26682e-05	0.00326683
12.7939	12.6504	-0.000484269	0.00416091
12.7944	12.6509	-0.000932943	0.00347545
12.7949	12.6514	-0.000527216	0.00216739
12.7954	12.6519	0.000924176	0.00265094
12.7958	12.6523	-0.000140161	0.00336351
12.7963	12.6528	-0.000568628	0.0041782
12.7968	12.6532	-0.000971021	0.00347792
12.7972	12.6537	-0.000581166	0.00225721
12.7977	12.6542	0.000914706	0.00271928
12.7982	12.6547	-0.000232457	0.00358755
12.7987	12.6551	-0.000651454	0.00420778
12.7991	12.6556	-0.000702872	0.00346627
12.7996	12.6561	-0.000610041	0.00223106
12.8001	12.6566	0.000965589	0.00260252
12.8006	12.6571	-0.000175171	0.00345005
12.801	12.6575	-0.000756288	0.00421851
12.8015	12.658	-0.000861853	0.00336614
12.802	12.6585	-0.000568896	0.00218608
12.8024	12.6589	0.000928243	0.00258555
12.8029	12.6594	-9.84808e-05	0.00343685
12.8034	12.6599	-0.000611843	0.00404446
12.8039	12.6603	-0.000788765	0.00335696
12.8043	12.6608	-0.000695203	0.00220443
12.8048	12.6613	0.00106882	0.00271166
12.8053	12.6618	-6.06706e-05	0.00348152
12.8057	12.6622	-0.000760622	0.00402406
12.8062	12.6627	-0.000768023	0.00343513
12.8067	12.6632	-0.000748619	0.00207865
12.8072	12.6636	0.00086022	0.00267832
12.8076	12.6641	-0.000210984	0.00351298
12.8081	12.6646	-0.00080257	0.00409536
12.8086	12.665	-0.000703871	0.00341022
12.8091	12.6655	-0.000690067	0.0020371
12.8095	12.666	0.00102714	0.00256768
12.81	12.6665	-7.44749e-05	0.00338499
12.8105	12.6669	-0.000797433	0.00405085
12.8109	12.6674	-0.000760087	0.00338843
12.8114	12.6679	-0.000697468	0.00209175
12.8119	12.6684	0.000927975	0.00273952
12.8124	12.6688	-0.000123289	0.00351389
12.8128	12.6693	-0.000853185	0.0040756
12.8133	12.6698	-0.000620314	0.00341038
12.8138	12.6702	-0.000668861	0.00218345
12.8142	12.6707	0.000977057	0.00274452
12.8147	12.6712	-8.34102e-05	0.00369776
12.8152	12.6716	-0.000964155	0.00401021
12.8157	12.6721	-0.000655324	0.00326076
12.8161	12.6726	-0.000537952	0.00224803
12.8166	12.673	0.000828278	0.00265438
12.8171	12.6735	-0.000190045	0.00361771
12.8176	12.674	-0.000932943	0.00420778
12.818	12.6744	-0.000524416	0.00321061
12.8185	12.6749	-0.000687267	0.0020553
12.819	12.6754	0.000808338	0.00268938
12.8194	12.6759	-2.05241e-05	0.00370415
12.8199	12.6764	-0.000985093	0.00395137
12.8204	12.6769	-0.000549688	0.00331386
12.8209	12.6773	-0.000542821	0.0021719
12.8213	12.6778	0.000827279	0.00270871
12.8218	12.6783	-0.00021505	0.00363983
12.8223	12.6788	-0.000950814	0.00404275
12.8227	12.6792	-0.00050881	0.00313744
12.8232	12.6797	-0.00048607	0.00214543
12.8237	12.6801	0.000752854	0.00264643
12.8242	12.6806	8.91787e-05	0.00373947
12.8246	12.6811	-0.00102037	0.00403668
12.8251	12.6816	-0.000559426	0.00312499
12.8256	12.6821	-0.000526948	0.00217985
12.8261	12.6825	0.000809605	0.00283744
12.8265	12.683	-7.24061e-05	0.00377807
12.827	12.6834	-0.00108893	0.00401349
12.8275	12.6839	-0.000553825	0.00330387
12.8279	12.6844	-0.000482468	0.0021333
12.8284	12.6849	0.000692036	0.00271477
12.8289	12.6854	1.22208e-05	0.00377824
12.8294	12.6858	-0.00115055	0.0039889
12.8298	12.6863	-0.000493472	0.0031653
12.8303	12.6868	-0.000433118	0.00210372
12.8308	12.6873	0.000683832	0.00276459
12.8312	12.6878	-0.000123022	0.00387911
12.8317	12.6882	-0.00114001	0.00387337
12.8322	12.6887	-0.000330621	0.00312687
12.8327	12.6892	-0.0003649	0.00212708
12.8331	12.6896	0.000608408	0.00282622
12.8336	12.6901	-4.47975e-05	0.00396801
12.8341	12.6906	-0.00128345	0.0039168
12.8346	12.691	-0.000539219	0.00313669
12.835	12.6915	-0.000276403	0.00208488
12.8355	12.692	0.000651355	0.00285162
12.836	12.6924	-2.02566e-05	0.00390713
12.8364	12.6929	-0.00125431	0.00387476
12.8369	12.6934	-0.000388103	0.0031267
12.8374	12.6938	-0.000281539	0.00215231
12.8379	12.6943	0.000547056	0.00284818
12.8383	12.6948	9.61704e-06	0.00386558
12.8388	12.6953	-0.00132767	0.00398981
12.8393	12.6957	-0.000480131	0.00315317
12.8397	12.6962	-0.000135025	0.00219123
12.8402	12.6967	0.00048417	0.00279246
12.8407	12.6972	-0.000101013	0.00390451
12.8412	12.6976	-0.00128986	0.00384674
12.8416	12.6981	-0.000420313	0.00297945
12.8421	12.6986	-0.000200782	0.00219665
12.8426	12.699	0.000479568	0.00272412
12.8431	12.6995	-5.09328e-05	0.00390107
12.8435	12.6999	-0.00141843	0.00380003
12.844	12.7004	-0.000429587	0.00301509
12.8445	12.7009	-2.33242e-05	0.00219214
12.8449	12.7014	0.00048417	0.0028113
12.8454	12.7019	7.48395e-05	0.00396678
12.8459	12.7023	-0.00139722	0.00384846
12.8464	12.7028	-0.000404511	0.00290251
12.8468	12.7033	-5.93331e-05	0.00212503
12.8473	12.7037	0.000368599	0.00276255
12.8478	12.7042	6.2569e-05	0.00407265
12.8482	12.7047	-0.00148005	0.00375832
12.8487	12.7052	-0.000446923	0.00296667
12.8492	12.7056	-4.65988e-05	0.00218092
12.8497	12.7061	0.000386006	0.00279664
12.8501	12.7066	9.32452e-05	0.00417245
12.8506	12.7071	-0.00150719	0.00381249
12.8511	12.7076	-0.000398108	0.00286891
12.8516	12.7081	8.25085e-05	0.00218312
12.852	12.7085	0.000393408	0.00283047
12.8525	12.709	0.000103714	0.00418131
12.853	12.7094	-0.00145217	0.00370227
12.8534	12.7099	-0.000343623	0.00284711
12.8539	12.7104	7.1308e-05	0.00220164
12.8544	12.7109	0.000336924	0.00285629
12.8549	12.7113	0.000147463	0.00410921
12.8553	12.7118	-0.00146471	0.00377528
12.8558	12.7123	-0.000351559	0.00285162
12.8563	12.7127	6.05002e-05	0.00206603
12.8567	12.7132	0.000311117	0.00293242
12.8572	12.7137	6.87042e-05	0.00420015
12.8577	12.7141	-0.00150026	0.00361557
12.8582	12.7146	-0.000357962	0.00298691
12.8586	12.7151	0.000196545	0.00215821
12.8591	12.7156	0.000181475	0.00287981
12.8596	12.7161	0.000166137	0.00411576
12.8601	12.7165	-0.00138749	0.00371177
12.8605	12.717	-0.000385107	0.00282531
12.861	12.7175	0.000303181	0.00218887
12.8615	12.718	0.000124456	0.00293692
12.8619	12.7184	0.00019041	0.00420187
12.8624	12.7189	-0.00136448	0.00352946
12.8629	12.7194	-0.000362099	0.0028004
12.8634	12.7198	0.000312312	0.00224073
12.8638	12.7203	0.000146732	0.00304575
12.8643	12.7208	0.000200612	0.00418893
12.8648	12.7212	-0.00145271	0.00376079
12.8652	12.7217	-0.000399375	0.00289333
12.8657	12.7222	0.000436354	0.00215338
12.8662	12.7226	0.000167135	0.00298363
12.8667	12.7231	3.21603e-05	0.00425105
12.8671	12.7236	-0.00145497	0.00369244
12.8676	12.724	-0.000387104	0.00277426
12.8681	12.7245	0.00044809	0.00222205
12.8686	12.725	1.27558e-05	0.00299002
12.869	12.7255	0.000144128	0.00423081
12.8695	12.7259	-0.00146245	0.00381002
12.87	12.7264	-0.000400177	0.00274001
12.8704	12.7269	0.000325653	0.00227122
12.8709	12.7274	5.15648e-05	0.00296388
12.8714	12.7278	6.54942e-06	0.00413476
12.8719	12.7283	-0.00138775	0.00348119
12.8723	12.7288	-0.000445656	0.00249557
12.8728	12.7292	0.000331788	0.00237774
12.8733	12.7297	2.29575e-05	0.0030087
12.8737	12.7302	0.000101182	0.00411936
12.8742	12.7307	-0.00137755	0.00366319
12.8747	12.7311	-0.000401443	0.0025608
12.8752	12.7316	0.000506107	0.00233242
12.8756	12.7321	-2.45905e-05	0.00315333
12.8761	12.7325	-1.28551e-05	0.00416837
12.8766	12.733	-0.00136348	0.00362196
12.8771	12.7335	-0.000402175	0.00254491
12.8775	12.734	0.000505108	0.0022745
12.878	12.7344	7.30382e-05	0.00311269
12.8785	12.7349	-1.45852e-05	0.00415903
12.8789	12.7354	-0.00139136	0.00344866
12.8794	12.7359	-0.000442589	0.00257138
12.8799	12.7364	0.000510512	0.00239937
12.8804	12.7368	-7.11398e-05	0.00311302
12.8808	12.7373	6.79729e-05	0.0041863
12.8813	12.7378	-0.00131666	0.00353552
12.8818	12.7383	-0.000525414	0.0025418
12.8822	12.7387	0.000550124	0.00244313
12.8827	12.7392	1.96224e-05	0.00314351
12.8832	12.7397	-8.06101e-05	0.00417041
12.8837	12.7401	-0.00130619	0.00350364
12.8841	12.7406	-0.0005827	0.00251598
12.8846	12.7411	0.000597672	0.00236045
12.8851	12.7416	6.51728e-05	0.00315178
12.8856	12.742	1.37547e-05	0.00429308
12.886	12.7425	-0.00117149	0.00361664
12.8865	12.743	-0.00050881	0.00249697
12.887	12.7434	0.000582334	0.00239438
12.8874	12.7439	-9.82133e-05	0.00317218
12.8879	12.7444	-0.000165968	0.00416714
12.8884	12.7449	-0.00120343	0.00350487
12.8889	12.7453	-0.000499875	0.00232915
12.8893	12.7458	0.000710175	0.00244264
12.8898	12.7463	-7.36724e-05	0.0033291
12.8903	12.7468	-0.000186175	0.00431053
12.8907	12.7472	-0.00119629	0.00357649
12.8912	12.7477	-0.000541555	0.00253466
12.8917	12.7482	0.000791199	0.0024224
12.8922	12.7487	2.01574e-05	0.003276
12.8926	12.7491	-0.000269268	0.00415656
12.8931	12.7496	-0.00110526	0.00358599
12.8936	12.75	-0.000469662	0.00252483
12.8941	12.7505	0.000821875	0.0025222
12.8945	12.751	-8.59429e-05	0.00310663
12.895	12.7515	-0.000338022	0.00431816
12.8955	12.7519	-0.00102064	0.00353322
12.8959	12.7524	-0.000519814	0.00243207
12.8964	12.7529	0.000867622	0.00257686
12.8969	12.7533	-5.34654e-05	0.00327026
12.8974	12.7538	-0.000287407	0.00422614
12.8978	12.7543	-0.000877726	0.00362426
12.8983	12.7547	-0.000481201	0.0023802
12.8988	12.7552	0.000868157	0.00253777
