# 1304     AichiSR QXAFS
# Start     : 8.9544
# End       : 9.0544
# Dir       : Forward
# Points    : 300
# ScanTime  : 1.01549
# Date      : 13.04.23 23:44
# Ring Cur. : 1[mA]
12.7557	12.7563	-0.0012213	0.00360934
12.7562	12.7558	-0.000548689	0.00250803
12.7566	12.7553	0.000659826	0.00251426
12.7571	12.7548	-2.11842e-06	0.00315317
12.7576	12.7543	-0.000297876	0.00434757
12.7581	12.7539	-0.00105285	0.00359394
12.7585	12.7534	-0.00044719	0.00264471
12.759	12.7529	0.000702702	0.00246444
12.7595	12.7525	3.85631e-05	0.00337393
12.7599	12.752	-0.000246261	0.00427612
12.7604	12.7516	-0.00103011	0.00364327
12.7609	12.7511	-0.000453058	0.00254196
12.7614	12.7506	0.000701436	0.00248607
12.7618	12.7501	-5.6533e-05	0.00336786
12.7623	12.7497	-0.000260066	0.00424391
12.7628	12.7492	-0.00110419	0.00362722
12.7632	12.7487	-0.000568628	0.00238315
12.7637	12.7483	0.000868692	0.0024428
12.7642	12.7478	-1.25876e-05	0.00342359
12.7647	12.7473	-0.00040271	0.00429652
12.7651	12.7469	-0.000799235	0.00357976
12.7656	12.7464	-0.00051161	0.00247099
12.7661	12.7459	0.000772526	0.00247722
12.7666	12.7454	-8.85467e-05	0.00345816
12.767	12.745	-0.000359763	0.00411281
12.7675	12.7445	-0.000911203	0.00360886
12.768	12.744	-0.000559693	0.00240683
12.7684	12.7435	0.000784065	0.00251549
12.7689	12.7431	-1.59227e-05	0.00345038
12.7694	12.7426	-0.00033829	0.00422302
12.7699	12.7421	-0.000927076	0.00359345
12.7703	12.7417	-0.00045106	0.00237167
12.7708	12.7412	0.000885564	0.00262619
12.7713	12.7407	-0.000128426	0.00341875
12.7717	12.7402	-0.000342624	0.00424933
12.7722	12.7398	-0.000825577	0.00361401
12.7727	12.7393	-0.000610309	0.00238225
12.7732	12.7389	0.000864358	0.00266479
12.7736	12.7384	-0.000119687	0.00350175
12.7741	12.7379	-0.000463527	0.0043239
12.7746	12.7374	-0.000835047	0.00346906
12.7751	12.737	-0.000411913	0.00236389
12.7755	12.7365	0.000932577	0.00275477
12.776	12.736	-0.000196912	0.0034194
12.7765	12.7355	-0.00049654	0.00428857
12.7769	12.735	-0.000806636	0.00350814
12.7774	12.7345	-0.000624113	0.00215961
12.7779	12.7341	0.000991664	0.00265357
12.7784	12.7336	-0.00015343	0.00355699
12.7788	12.7331	-0.000568628	0.00419623
12.7793	12.7327	-0.000737882	0.00356977
12.7798	12.7322	-0.000543089	0.00219509
12.7802	12.7317	0.00100367	0.00275697
12.7807	12.7312	-0.000201246	0.00353724
12.7812	12.7308	-0.000580168	0.00419827
12.7817	12.7303	-0.000786429	0.00347513
12.7821	12.7298	-0.00068773	0.00220992
12.7826	12.7294	0.000852087	0.00266823
12.7831	12.7289	-0.000140161	0.00349225
12.7836	12.7284	-0.000632513	0.00416762
12.784	12.728	-0.000805637	0.00370211
12.7845	12.7275	-0.000622115	0.00215166
12.785	12.727	0.000977592	0.00268192
12.7854	12.7265	-0.000119954	0.00356231
12.7859	12.7261	-0.00059597	0.00413616
12.7864	12.7256	-0.000719477	0.00343293
12.7869	12.7251	-0.000575763	0.00232899
12.7873	12.7246	0.000932042	0.00274231
12.7878	12.7242	-9.79458e-05	0.00355608
12.7883	12.7237	-0.000771894	0.00415033
12.7887	12.7232	-0.000650723	0.00350922
12.7892	12.7227	-0.000618513	0.00216288
12.7897	12.7223	0.00102154	0.00279713
12.7902	12.7218	-0.000187709	0.0035002
12.7906	12.7214	-0.000768291	0.0041782
12.7911	12.7209	-0.000624648	0.00345988
12.7916	12.7204	-0.000631515	0.0021769
12.7921	12.7199	0.000918505	0.00278795
12.7925	12.7195	-6.22044e-05	0.00370367
12.793	12.719	-0.000770092	0.00423548
12.7935	12.7186	-0.000542554	0.00347217
12.7939	12.7181	-0.000611843	0.00238627
12.7944	12.7176	0.000892965	0.00272551
12.7949	12.7171	-0.00021785	0.00370399
12.7954	12.7167	-0.000722009	0.00398498
12.7958	12.7162	-0.000526948	0.00338483
12.7963	12.7157	-0.000713341	0.00226843
12.7968	12.7152	0.000824943	0.00277377
12.7972	12.7147	-1.38539e-05	0.00376331
12.7977	12.7143	-0.000962086	0.00419221
12.7982	12.7138	-0.000616444	0.00347373
12.7987	12.7133	-0.000531817	0.00214683
12.7991	12.7129	0.000998263	0.00277721
12.7996	12.7124	-4.35312e-05	0.00372874
12.8001	12.7119	-0.000921939	0.00421572
12.8006	12.7115	-0.000459996	0.00339417
12.801	12.711	-0.000538684	0.00222672
12.8015	12.7105	0.000940513	0.00287358
12.802	12.71	3.11615e-05	0.00373169
12.8024	12.7096	-0.000909669	0.00410658
12.8029	12.7091	-0.000432387	0.00334467
12.8034	12.7086	-0.00059704	0.00221582
12.8039	12.7082	0.00084515	0.00275665
12.8043	12.7077	-1.69215e-05	0.00374291
12.8048	12.7072	-0.00100963	0.0041069
12.8053	12.7067	-0.000547155	0.00333189
12.8057	12.7062	-0.000437987	0.00216149
12.8062	12.7058	0.000831078	0.00273829
12.8067	12.7053	-3.81273e-05	0.00384272
12.8072	12.7048	-0.00105898	0.004077
12.8076	12.7043	-0.000537952	0.00333951
12.8081	12.7038	-0.000524683	0.00209111
12.8086	12.7034	0.000753121	0.00276599
12.8091	12.7029	7.66408e-05	0.00380937
12.8095	12.7024	-0.00109426	0.00409085
12.81	12.702	-0.000474799	0.00324503
12.8105	12.7015	-0.000467932	0.00217673
12.8109	12.701	0.000743116	0.00274312
12.8114	12.7005	-1.7189e-05	0.00380937
12.8119	12.7001	-0.0011224	0.00405472
12.8124	12.6996	-0.000496807	0.00318742
12.8128	12.6992	-0.00043772	0.0022359
12.8133	12.6987	0.000707571	0.00283466
12.8138	12.6982	3.21603e-05	0.00376906
12.8142	12.6978	-0.00107992	0.00405413
12.8147	12.6973	-0.000618709	0.00319988
12.8152	12.6968	-0.000315015	0.00212396
12.8157	12.6963	0.000696103	0.00285441
12.8161	12.6959	-2.63918e-05	0.00396678
12.8166	12.6954	-0.00119603	0.0039481
12.8171	12.6949	-0.000405046	0.00321357
12.8176	12.6944	-0.000269732	0.00222033
12.818	12.694	0.000682299	0.0028957
12.8185	12.6935	-8.9813e-05	0.00389672
12.819	12.693	-0.00121443	0.00390918
12.8194	12.6926	-0.000431852	0.00319676
12.8199	12.6921	-0.000156034	0.00214871
12.8204	12.6916	0.000618877	0.00278483
12.8209	12.6912	5.92339e-05	0.00389254
12.8213	12.6907	-0.00117735	0.0039576
12.8218	12.6902	-0.000371231	0.00317046
12.8223	12.6897	-0.000188708	0.0022513
12.8227	12.6893	0.000607409	0.00287637
12.8232	12.6888	8.15097e-05	0.00394778
12.8237	12.6884	-0.00130033	0.00392942
12.8242	12.6879	-0.000356428	0.00318651
12.8246	12.6874	-0.000137361	0.00221893
12.8251	12.6869	0.00050971	0.00286686
12.8256	12.6865	0.000131323	0.00396367
12.8261	12.686	-0.00136041	0.00387943
12.8265	12.6855	-0.000301478	0.00302771
12.827	12.685	-8.80117e-05	0.00218731
12.8275	12.6845	0.000409745	0.00301633
12.8279	12.684	0.000243558	0.00404135
12.8284	12.6836	-0.00143097	0.00400538
12.8289	12.6831	-0.00030328	0.00316906
12.8294	12.6826	-0.000156034	0.0022513
12.8298	12.6822	0.00034199	0.00290455
12.8303	12.6817	0.000101449	0.0041768
12.8308	12.6812	-0.00140282	0.0039517
12.8312	12.6808	-0.000416514	0.00309589
12.8317	12.6803	-2.38592e-05	0.00224851
12.8322	12.6798	0.000512777	0.00298068
12.8327	12.6793	0.000183276	0.004077
12.8331	12.6789	-0.00145984	0.00388598
12.8336	12.6784	-0.000309147	0.0030101
12.8341	12.6779	-0.000123753	0.00222532
12.8346	12.6775	0.000511511	0.00287202
12.835	12.677	0.000147463	0.00409675
12.8355	12.6765	-0.0015506	0.00387648
12.836	12.676	-0.000413714	0.0029715
12.8364	12.6755	3.88306e-05	0.00227015
12.8369	12.6751	0.000450159	0.00288587
12.8374	12.6746	0.000188609	0.00424933
12.8379	12.6741	-0.00148005	0.00387133
12.8383	12.6736	-0.00031168	0.00302443
12.8388	12.6731	4.26295e-05	0.00228539
12.8393	12.6727	0.000466763	0.00300854
12.8397	12.6722	0.000148462	0.00416214
12.8402	12.6718	-0.00149458	0.00360918
12.8407	12.6713	-0.000347225	0.00308811
12.8412	12.6708	0.00014593	0.00219542
12.8416	12.6703	0.000302111	0.00304623
12.8421	12.6699	6.71704e-05	0.00421696
12.8426	12.6694	-0.00148058	0.00383724
12.8431	12.669	-0.000332155	0.00287825
12.8435	12.6685	0.000202413	0.00217657
12.844	12.668	0.000301112	0.00299936
12.8445	12.6676	0.000183472	0.00426678
12.8449	12.6671	-0.00150639	0.00382666
12.8454	12.6666	-0.00040271	0.00278016
12.8459	12.6661	6.99705e-05	0.00222639
12.8464	12.6656	0.000264033	0.00308794
12.8468	12.6652	0.000199345	0.00432922
12.8473	12.6647	-0.0016485	0.00371816
12.8478	12.6642	-0.000222184	0.0029511
12.8482	12.6637	0.000216217	0.00235545
12.8487	12.6633	0.000302646	0.00290767
12.8492	12.6628	0.000243826	0.00416902
12.8497	12.6624	-0.00147311	0.00379429
12.8501	12.6619	-0.000429783	0.00285178
12.8506	12.6614	0.000278372	0.00229006
12.8511	12.6609	0.000237958	0.00300715
12.8516	12.6605	0.000219552	0.00420622
12.852	12.66	-0.00138875	0.00381109
12.8525	12.6595	-0.000261867	0.00280835
12.853	12.6591	0.000192211	0.00236324
12.8534	12.6586	0.000191944	0.00312826
12.8539	12.6581	0.000289305	0.00423408
12.8544	12.6577	-0.0015534	0.00367301
12.8549	12.6572	-0.000322684	0.00281318
12.8553	12.6567	0.00042815	0.00239905
12.8558	12.6562	0.000114183	0.00299142
12.8563	12.6558	0.000157933	0.00431504
12.8567	12.6553	-0.0014113	0.00368407
12.8572	12.6548	-0.000397306	0.00280491
12.8577	12.6543	0.000388271	0.00243486
12.8582	12.6538	2.80227e-05	0.00313948
12.8586	12.6534	0.000206747	0.00430259
12.8591	12.6529	-0.00134814	0.00367081
12.8596	12.6524	-0.000406045	0.00273985
12.8601	12.652	0.000430487	0.00232587
12.8605	12.6515	7.61942e-06	0.00325469
12.861	12.651	0.000110117	0.00424031
12.8615	12.6505	-0.00131459	0.00377094
12.8619	12.6501	-0.000245994	0.00280803
12.8624	12.6496	0.000404679	0.00239626
12.8629	12.6491	0.000168402	0.00295733
12.8634	12.6487	5.57025e-05	0.00423269
12.8638	12.6482	-0.00139642	0.00369137
12.8643	12.6477	-0.000291741	0.00265513
12.8648	12.6472	0.000569528	0.00246304
12.8652	12.6468	3.85631e-05	0.00312654
12.8657	12.6463	5.67013e-05	0.00425883
12.8662	12.6458	-0.00141103	0.00362443
12.8667	12.6453	-0.000421115	0.00263693
12.8671	12.6448	0.000479568	0.00234816
12.8676	12.6444	-3.38473e-06	0.00316472
12.8681	12.6439	-9.10793e-05	0.00441968
12.8686	12.6434	-0.00134534	0.00370522
12.869	12.643	-0.000480203	0.00265298
12.8695	12.6425	0.00065082	0.0024115
12.87	12.642	2.42238e-05	0.00320503
12.8704	12.6416	-9.94796e-05	0.00408666
12.8709	12.6411	-0.00123204	0.00368359
12.8714	12.6406	-0.000450793	0.00274763
12.8719	12.6401	0.000562929	0.0024442
12.8723	12.6397	-7.60087e-05	0.00309278
12.8728	12.6392	-7.62762e-05	0.00423892
12.8733	12.6388	-0.00111987	0.00364278
12.8737	12.6383	-0.000423381	0.00255769
12.8742	12.6378	0.000591536	0.00241494
12.8747	12.6374	1.0152e-05	0.00332631
12.8752	12.6369	-4.73302e-05	0.00436142
12.8756	12.6364	-0.00114488	0.00363082
12.8761	12.6359	-0.000457927	0.00257433
12.8766	12.6355	0.000690966	0.00242256
12.8771	12.635	2.47588e-05	0.00329936
12.8775	12.6345	-0.000134026	0.00433839
12.878	12.634	-0.00116048	0.00361009
12.8785	12.6335	-0.000446388	0.00258244
12.8789	12.6331	0.000732914	0.00252843
12.8794	12.6326	7.63733e-05	0.00328567
12.8799	12.6322	-0.000244995	0.00414083
12.8804	12.6317	-0.00103318	0.00356076
12.8808	12.6312	-0.000559426	0.00248001
12.8813	12.6307	0.000750517	0.00255114
12.8818	12.6303	-1.85092e-06	0.00321078
12.8822	12.6298	-0.000220187	0.00409536
12.8827	12.6293	-0.00111547	0.00367269
12.8832	12.6289	-0.000584234	0.00247689
12.8837	12.6284	0.000763323	0.0025731
12.8841	12.6279	3.62268e-05	0.00329453
12.8846	12.6274	-0.000199712	0.00426522
12.8851	12.627	-0.000969487	0.00355158
12.8856	12.6265	-0.000530818	0.00240388
12.886	12.626	0.000776663	0.00261964
12.8865	12.6255	6.95067e-05	0.00334623
12.887	12.625	-0.000337755	0.00418598
12.8874	12.6246	-0.000994563	0.00356526
12.8879	12.6241	-0.000505207	0.00235127
12.8884	12.6236	0.000783797	0.00256547
12.8889	12.6231	4.13632e-05	0.00345907
12.8893	12.6227	-0.000300212	0.00416853
12.8898	12.6222	-0.000972287	0.00348774
12.8903	12.6217	-0.000502675	0.00246411
12.8907	12.6213	0.000894766	0.00253015
12.8912	12.6208	-8.06101e-05	0.00341145
12.8917	12.6203	-0.0003733	0.00429373
12.8922	12.6198	-0.00103291	0.00366818
12.8926	12.6194	-0.000564295	0.00249074
12.8931	12.6189	0.000764857	0.00262726
12.8936	12.6184	-0.000116155	0.00349708
12.8941	12.618	-0.000470732	0.00423548
12.8945	12.6175	-0.000896667	0.00356731
12.895	12.617	-0.000596505	0.00229629
12.8955	12.6165	0.000936447	0.0025899
12.8959	12.6161	-0.000128889	0.00349987
12.8964	12.6156	-0.000380969	0.00415377
12.8969	12.6151	-0.000865456	0.00359861
12.8974	12.6146	-0.000690067	0.00225581
12.8978	12.6142	0.000911638	0.00269298
12.8983	12.6137	-0.000129424	0.00339777
12.8988	12.6132	-0.000486338	0.00428825
