# 1304     AichiSR QXAFS
# Start     : 8.9544
# End       : 9.0544
# Dir       : Forward
# Points    : 300
# ScanTime  : 1.01549
# Date      : 13.04.24 00:21
# Ring Cur. : 0.9[mA]
12.7557	12.7563	-0.000333956	0.00257465
12.7562	12.7558	0.000558791	0.00238332
12.7566	12.7553	0.000154597	0.00312842
12.7571	12.7548	-0.000117422	0.0043035
12.7576	12.7544	-0.00127452	0.00355871
12.7581	12.7539	-0.000397306	0.00257202
12.7585	12.7534	0.000586132	0.00243969
12.759	12.753	-9.51996e-06	0.00324707
12.7595	12.7525	-2.79257e-05	0.00434102
12.7599	12.752	-0.0011058	0.00364778
12.7604	12.7516	-0.000454859	0.00255581
12.7609	12.7511	0.000635749	0.00241601
12.7614	12.7506	7.61058e-05	0.00335541
12.7618	12.7502	-0.00010895	0.00424203
12.7623	12.7497	-0.00105565	0.00359763
12.7628	12.7492	-0.000422649	0.00254851
12.7632	12.7488	0.000567263	0.00244887
12.7637	12.7483	-3.09933e-05	0.0032919
12.7642	12.7478	-0.000142694	0.00438617
12.7647	12.7474	-0.00112314	0.00363892
12.7651	12.7469	-0.000401443	0.00247984
12.7656	12.7464	0.000832344	0.00253031
12.7661	12.7459	-6.62708e-05	0.00336351
12.7666	12.7455	-0.000240126	0.00422802
12.767	12.745	-0.00114668	0.003718
12.7675	12.7445	-0.000471999	0.0025186
12.768	12.744	0.000793731	0.00263242
12.7684	12.7436	-9.94796e-05	0.00328223
12.7689	12.7431	-0.000260066	0.00430914
12.7694	12.7426	-0.000959018	0.00368203
12.7699	12.7422	-0.000543285	0.00243518
12.7703	12.7417	0.000781729	0.00256703
12.7708	12.7412	-8.4409e-05	0.00328347
12.7713	12.7407	-0.000333688	0.00428111
12.7717	12.7403	-0.000862923	0.00369261
12.7722	12.7398	-0.000526217	0.0024056
12.7727	12.7393	0.000947647	0.00255162
12.7732	12.7389	2.72914e-05	0.00354035
12.7736	12.7384	-0.000307614	0.00433152
12.7741	12.7379	-0.000859321	0.00359001
12.7746	12.7375	-0.000590102	0.00229318
12.7751	12.737	0.000891431	0.00261637
12.7755	12.7365	-0.000161634	0.00344087
12.776	12.736	-0.0003761	0.00429947
12.7765	12.7355	-0.000870325	0.00344399
12.7769	12.7351	-0.000581166	0.00230531
12.7774	12.7346	0.000908767	0.00262152
12.7779	12.7341	-0.000156766	0.00339105
12.7784	12.7336	-0.000490404	0.00427161
12.7788	12.7331	-0.000881525	0.0035111
12.7793	12.7327	-0.000593437	0.00238536
12.7798	12.7322	0.000878626	0.00270248
12.7802	12.7317	6.08561e-06	0.00359001
12.7807	12.7313	-0.000655324	0.00414862
12.7812	12.7308	-0.000725879	0.00362024
12.7817	12.7303	-0.000727877	0.00227654
12.7821	12.7298	0.00104101	0.00275944
12.7826	12.7294	-6.98735e-05	0.00359624
12.7831	12.7289	-0.000638916	0.00420278
12.7836	12.7284	-0.000701802	0.00352806
12.784	12.728	-0.000645319	0.00224196
12.7845	12.7275	0.00103634	0.00270683
12.785	12.727	-1.31226e-05	0.00350347
12.7854	12.7266	-0.000630248	0.00430087
12.7859	12.7261	-0.000759356	0.00348431
12.7864	12.7256	-0.000726611	0.00227294
12.7869	12.7251	0.000981926	0.00271896
12.7873	12.7246	-1.84553e-05	0.00359705
12.7878	12.7242	-0.000719744	0.00436519
12.7883	12.7237	-0.000663457	0.00347529
12.7887	12.7232	-0.000618245	0.00215166
12.7892	12.7228	0.000996729	0.00279434
12.7897	12.7223	-0.000115353	0.00358862
12.7902	12.7219	-0.000742948	0.00407109
12.7906	12.7214	-0.00060544	0.00346857
12.7911	12.7209	-0.000720208	0.00217469
12.7916	12.7204	0.000989328	0.00277345
12.7921	12.72	-1.17851e-05	0.00380363
12.7925	12.7195	-0.000733816	0.00419532
12.793	12.719	-0.000603442	0.0033895
12.7935	12.7186	-0.000598306	0.00214978
12.7939	12.7181	0.000861754	0.00289537
12.7944	12.7176	-9.08118e-05	0.00368842
12.7949	12.7172	-0.000848584	0.00412043
12.7954	12.7167	-0.000598038	0.00349118
12.7958	12.7162	-0.000571696	0.0021551
12.7963	12.7157	0.000999797	0.00274919
12.7968	12.7153	-0.000130958	0.00368719
12.7972	12.7148	-0.00094648	0.00414566
12.7977	12.7143	-0.000482468	0.00336926
12.7982	12.7138	-0.000584769	0.00218403
12.7987	12.7133	0.000819075	0.0027895
12.7991	12.7129	-8.10739e-05	0.00387525
12.7996	12.7124	-0.000938811	0.00421605
12.8001	12.712	-0.000409112	0.00330403
12.8006	12.7115	-0.000489138	0.00222377
12.801	12.711	0.000845685	0.00282515
12.8015	12.7105	-4.91315e-05	0.00380798
12.802	12.7101	-0.000988428	0.00403217
12.8024	12.7096	-0.000574496	0.00331493
12.8029	12.7091	-0.000444123	0.00213314
12.8034	12.7087	0.000789398	0.002721
12.8039	12.7082	-0.000129959	0.00373497
12.8043	12.7077	-0.00100503	0.0040144
12.8048	12.7072	-0.000450793	0.00334467
12.8053	12.7068	-0.000450793	0.00206947
12.8057	12.7063	0.000596138	0.00284867
12.8062	12.7058	-3.25271e-05	0.00378307
12.8067	12.7053	-0.001105	0.00403152
12.8072	12.7048	-0.000462796	0.00316906
12.8076	12.7043	-0.000393239	0.00209857
12.8081	12.7039	0.000673096	0.00286359
12.8086	12.7034	-8.67453e-05	0.00387664
12.8091	12.7029	-0.00118656	0.00403791
12.8095	12.7025	-0.000491938	0.00335229
12.81	12.702	-0.000360298	0.00225876
12.8105	12.7015	0.00061581	0.00299018
12.8109	12.7011	0.000105516	0.00391696
12.8114	12.7006	-0.00124971	0.00397252
12.8119	12.7001	-0.000327286	0.00324863
12.8124	12.6996	-0.00021505	0.00215231
12.8128	12.6992	0.000600472	0.00292307
12.8133	12.6987	6.56366e-05	0.00396474
12.8138	12.6983	-0.00132253	0.0039431
12.8142	12.6978	-0.000386105	0.00313449
12.8147	12.6973	-0.000201513	0.00215961
12.8152	12.6968	0.000492374	0.00288743
12.8157	12.6964	6.59041e-05	0.00402546
12.8161	12.6959	-0.0013218	0.00394203
12.8166	12.6954	-0.000360762	0.00308762
12.8171	12.6949	-0.000141962	0.00219182
12.8176	12.6944	0.0004775	0.00295142
12.818	12.694	-3.71285e-05	0.00401784
12.8185	12.6935	-0.00140976	0.00387616
12.819	12.693	-0.000327018	0.00314088
12.8194	12.6926	-1.69215e-05	0.00210544
12.8199	12.6921	0.000510976	0.00296651
12.8204	12.6917	5.02985e-05	0.0041505
12.8209	12.6912	-0.0013218	0.00390713
12.8213	12.6907	-0.000445656	0.00307286
12.8218	12.6902	-0.000139894	0.00212552
12.8223	12.6898	0.000411546	0.00293553
12.8227	12.6893	0.000211081	0.00418024
12.8232	12.6888	-0.00153527	0.00390639
12.8237	12.6884	-0.000344158	0.00303001
12.8242	12.6879	-3.86623e-05	0.00226081
12.8246	12.6874	0.000407479	0.00287325
12.8251	12.687	0.000153064	0.00417664
12.8256	12.6865	-0.00144784	0.00374726
12.8261	12.686	-0.000252397	0.0029606
12.8265	12.6855	8.2776e-05	0.00218624
12.827	12.685	0.000415345	0.00290643
12.8275	12.6846	0.000163069	0.00416091
12.8279	12.6841	-0.00144477	0.00376954
12.8284	12.6836	-0.000261599	0.00294487
12.8289	12.6831	9.65803e-05	0.00223278
12.8294	12.6827	0.000318982	0.00296511
12.8298	12.6822	0.000257363	0.00425948
12.8303	12.6817	-0.00157288	0.00374152
12.8308	12.6813	-0.000391438	0.00296012
12.8312	12.6808	0.000102716	0.00227498
12.8317	12.6803	0.00031925	0.00292946
12.8322	12.6798	0.00012319	0.00427456
12.8327	12.6794	-0.00146498	0.00381716
12.8331	12.6789	-0.0003761	0.00290004
12.8336	12.6784	0.000184275	0.00240265
12.8341	12.678	0.00018481	0.00301928
12.8346	12.6775	0.000190945	0.00415779
12.835	12.677	-0.00147111	0.00375413
12.8355	12.6765	-0.000425717	0.00286719
12.836	12.676	0.000226954	0.00230687
12.8364	12.6756	0.000196813	0.00301166
12.8369	12.6751	0.000187075	0.00439756
12.8374	12.6746	-0.00140536	0.00366802
12.8379	12.6741	-0.000395843	0.00290611
12.8383	12.6736	0.000309245	0.00229506
12.8388	12.6732	0.000129325	0.00299609
12.8393	12.6727	0.000121389	0.00425867
12.8397	12.6723	-0.00137161	0.0037085
12.8402	12.6718	-0.000325752	0.00283015
12.8407	12.6713	0.000310047	0.00226204
12.8412	12.6709	0.000157201	0.00319381
12.8416	12.6704	0.000203679	0.00428423
12.8421	12.6699	-0.00138242	0.00368826
12.8426	12.6694	-0.000362563	0.00262791
12.8431	12.669	0.000456294	0.00234579
12.8435	12.6685	-1.84553e-05	0.00307705
12.844	12.6681	4.28431e-06	0.00428718
12.8445	12.6676	-0.0012313	0.00360483
12.8449	12.6671	-0.000354163	0.0027909
12.8454	12.6666	0.000468832	0.00233071
12.8459	12.6662	-1.48527e-05	0.00308515
12.8464	12.6657	0.000101717	0.004273
12.8468	12.6652	-0.00134381	0.00372235
12.8473	12.6647	-0.000357962	0.00265824
12.8478	12.6642	0.000528115	0.00232276
12.8482	12.6638	2.75589e-05	0.00319537
12.8487	12.6633	-6.60034e-05	0.00440985
12.8492	12.6628	-0.00124584	0.00363532
12.8497	12.6624	-0.000401907	0.00263119
12.8501	12.6619	0.000651622	0.00247968
12.8506	12.6615	-2.81932e-05	0.00313358
12.8511	12.661	-3.86623e-05	0.00422893
12.8516	12.6605	-0.00130159	0.00370104
12.852	12.66	-0.000524951	0.00261841
12.8525	12.6596	0.000607409	0.00255146
12.853	12.6591	1.42897e-05	0.0031848
12.8534	12.6586	-0.000112285	0.00444287
12.8539	12.6582	-0.00118502	0.00369325
12.8544	12.6577	-0.000357498	0.00248516
12.8549	12.6572	0.000749251	0.00246304
12.8553	12.6567	-7.88088e-05	0.00328862
12.8558	12.6563	-0.000140161	0.00434929
12.8563	12.6558	-0.00107819	0.00362131
12.8567	12.6553	-0.000509345	0.00270232
12.8572	12.6548	0.000720109	0.00255318
12.8577	12.6543	5.64338e-05	0.00322356
12.8582	12.6539	-0.00023219	0.00433201
12.8586	12.6534	-0.00105231	0.00361976
12.8591	12.6529	-0.000524416	0.00245026
12.8596	12.6525	0.000746986	0.00242863
12.8601	12.652	1.09545e-05	0.00328207
12.8605	12.6515	-0.000413179	0.00429373
12.861	12.6511	-0.00109346	0.00358271
12.8615	12.6506	-0.000363562	0.0023285
12.8619	12.6501	0.000899832	0.0025032
12.8624	12.6496	-0.000102083	0.00336442
12.8629	12.6492	-0.000259531	0.00429603
12.8634	12.6487	-0.00105852	0.00356027
12.8638	12.6482	-0.000513144	0.00240732
12.8643	12.6477	0.000868157	0.00253278
12.8648	12.6473	-0.000138895	0.00337876
12.8652	12.6468	-0.000378971	0.00428874
12.8657	12.6463	-0.00100764	0.00357788
12.8662	12.6458	-0.000525949	0.00238225
12.8667	12.6453	0.000820609	0.00262931
12.8671	12.6449	6.08561e-06	0.00341645
12.8676	12.6444	-0.000486338	0.00431692
12.8681	12.6439	-0.000914805	0.0036
12.8686	12.6434	-0.000496807	0.00237151
12.869	12.643	0.000849751	0.00255925
12.8695	12.6425	-6.62708e-05	0.00333329
12.87	12.6421	-0.000528214	0.00420246
12.8704	12.6416	-0.000859053	0.00356886
12.8709	12.6411	-0.000502942	0.00227605
12.8714	12.6407	0.000969388	0.00256875
12.8719	12.6402	-4.75977e-05	0.00349413
12.8723	12.6397	-0.000591636	0.00433217
12.8728	12.6393	-0.000736081	0.00351528
12.8733	12.6388	-0.000692332	0.0022745
12.8737	12.6383	0.00098626	0.00264299
12.8742	12.6379	-7.16036e-05	0.00348028
12.8747	12.6374	-0.000583967	0.00414083
12.8752	12.6369	-0.00079977	0.00359034
12.8756	12.6364	-0.000481469	0.00237462
12.8761	12.636	0.00107115	0.00266667
12.8766	12.6355	-0.000168572	0.00340571
12.8771	12.635	-0.000686464	0.00427456
12.8775	12.6345	-0.0007959	0.00351282
12.878	12.634	-0.000678599	0.00222205
12.8785	12.6336	0.00093024	0.00269019
12.8789	12.6331	-0.000112553	0.00356698
12.8794	12.6326	-0.000673195	0.00425744
12.8799	12.6322	-0.00077036	0.003394
12.8804	12.6317	-0.00068213	0.00224384
12.8808	12.6312	0.000993929	0.00273329
12.8813	12.6308	-0.000183108	0.00365728
12.8818	12.6303	-0.000843715	0.00420106
12.8822	12.6298	-0.000739416	0.00349864
12.8827	12.6293	-0.00074095	0.00212896
12.8832	12.6289	0.0010144	0.00275821
12.8837	12.6284	-0.000200515	0.00364499
12.8841	12.628	-0.000853185	0.0041033
12.8846	12.6275	-0.000630516	0.00336024
12.8851	12.627	-0.000615178	0.00210217
12.8856	12.6265	0.000939247	0.00280319
12.886	12.626	-3.09933e-05	0.00365122
12.8865	12.6256	-0.000872322	0.00409396
12.887	12.6251	-0.000636116	0.00341924
12.8874	12.6246	-0.000697468	0.00212675
12.8879	12.6241	0.000938177	0.00273968
12.8884	12.6236	-9.77495e-05	0.00360902
12.8889	12.6232	-0.000998897	0.00408602
12.8893	12.6227	-0.000529017	0.00331788
12.8898	12.6222	-0.000575299	0.00212724
12.8903	12.6218	0.000845881	0.00275837
12.8907	12.6213	-0.000223789	0.00367318
12.8912	12.6208	-0.000942414	0.00402873
12.8917	12.6203	-0.000519814	0.00339122
12.8922	12.6199	-0.000603906	0.00216895
12.8926	12.6194	0.000872491	0.0026933
12.8931	12.6189	-0.000102815	0.00370989
12.8936	12.6185	-0.00105358	0.00410814
12.8941	12.618	-0.000512876	0.00338778
12.8945	12.6175	-0.000478865	0.00222205
12.895	12.617	0.000863823	0.00286998
12.8955	12.6166	-3.25271e-05	0.00380798
12.8959	12.6161	-0.00106765	0.00409675
12.8964	12.6156	-0.000418315	0.00337736
12.8969	12.6151	-0.000391509	0.00221378
12.8974	12.6147	0.000809872	0.00284104
12.8978	12.6142	3.59593e-05	0.0037879
12.8983	12.6137	-0.00108452	0.00408339
12.8988	12.6133	-0.000496005	0.00328223
