# 1304     AichiSR QXAFS
# Start     : 8.9544
# End       : 9.0544
# Dir       : Backward
# Points    : 300
# ScanTime  : 1.01549
# Date      : 13.04.24 00:31
# Ring Cur. : 0.9[mA]
12.7557	12.6124	-0.000877726	0.00411329
12.7562	12.6128	-0.0005799	0.0034362
12.7566	12.6133	-0.00055329	0.0021333
12.7571	12.6138	0.000980392	0.00281688
12.7576	12.6142	-9.38794e-05	0.00368203
12.7581	12.6147	-0.000778029	0.00408634
12.7585	12.6152	-0.000533083	0.00330263
12.759	12.6157	-0.000442856	0.00200671
12.7595	12.6162	0.000947647	0.00273829
12.7599	12.6166	-1.41214e-05	0.00364998
12.7604	12.6171	-0.000934477	0.00407684
12.7609	12.6176	-0.000482468	0.00339261
12.7614	12.6181	-0.000523346	0.00215928
12.7618	12.6185	0.000898565	0.00289645
12.7623	12.619	-5.6533e-05	0.00382092
12.7628	12.6195	-0.000959286	0.00405831
12.7632	12.6199	-0.000418315	0.00330886
12.7637	12.6204	-0.000360762	0.0021238
12.7642	12.6209	0.000872491	0.00280024
12.7647	12.6214	-1.05188e-05	0.00374103
12.7651	12.6218	-0.00113694	0.00400087
12.7656	12.6223	-0.00060931	0.00326215
12.7661	12.6228	-0.00023886	0.00212536
12.7666	12.6232	0.000847147	0.00286145
12.767	12.6237	6.15702e-05	0.00376766
12.7675	12.6242	-0.00109119	0.00394654
12.768	12.6246	-0.000428053	0.00311237
12.7684	12.6251	-0.000271801	0.00213175
12.7689	12.6256	0.000717576	0.00279664
12.7694	12.6261	0.000105052	0.00385936
12.7699	12.6266	-0.00118122	0.00400554
12.7703	12.627	-0.000376368	0.0030364
12.7708	12.6275	-0.000303476	0.00214822
12.7713	12.628	0.00070964	0.00287718
12.7717	12.6285	0.000122388	0.00399121
12.7722	12.6289	-0.00112421	0.00392319
12.7727	12.6294	-0.000280808	0.00304296
12.7732	12.6299	-0.000132492	0.00214576
12.7736	12.6303	0.000592071	0.00288587
12.7741	12.6308	0.000153866	0.00405381
12.7746	12.6313	-0.00134147	0.0040334
12.7751	12.6318	-0.000388905	0.00303828
12.7755	12.6322	-0.000142961	0.00220288
12.776	12.6327	0.000618877	0.00294831
12.7765	12.6331	6.35678e-05	0.00391122
12.7769	12.6336	-0.00130953	0.00392958
12.7774	12.6341	-0.000366166	0.00290734
12.7779	12.6346	1.83561e-05	0.00218329
12.7784	12.635	0.000684564	0.00285334
12.7788	12.6355	8.43098e-05	0.00409257
12.7793	12.636	-0.00127191	0.00385624
12.7798	12.6365	-0.000433386	0.00301821
12.7802	12.6369	3.82956e-05	0.00231374
12.7807	12.6374	0.000528383	0.00276009
12.7812	12.6379	-5.40004e-05	0.00401488
12.7817	12.6384	-0.00142863	0.00371366
12.7821	12.6388	-0.000375101	0.00292995
12.7826	12.6393	3.0894e-05	0.00228727
12.7831	12.6397	0.000449891	0.00291234
12.7836	12.6402	0.000141061	0.00412199
12.784	12.6407	-0.00141356	0.003841
12.7845	12.6412	-0.00031835	0.0029497
12.785	12.6416	8.30435e-05	0.00219665
12.7854	12.6421	0.000410743	0.00292324
12.7859	12.6426	0.000257363	0.0041469
12.7864	12.643	-0.00140363	0.00381232
12.7869	12.6435	-0.00034669	0.00298675
12.7873	12.644	0.000119587	0.00226376
12.7878	12.6444	0.000368867	0.00294815
12.7883	12.6449	0.000287575	0.00427193
12.7887	12.6454	-0.00138982	0.00373652
12.7892	12.6459	-0.000427251	0.00287014
12.7897	12.6463	0.000118589	0.0022236
12.7902	12.6468	0.000379068	0.00296667
12.7906	12.6473	0.000235889	0.00410502
12.7911	12.6478	-0.00153373	0.00377266
12.7916	12.6483	-0.000312483	0.00289645
12.7921	12.6487	0.000212615	0.00224417
12.7925	12.6492	0.000345057	0.00298068
12.793	12.6497	0.000326919	0.00426104
12.7935	12.6501	-0.0014233	0.00370801
12.7939	12.6506	-0.000244995	0.0028717
12.7944	12.6511	0.000399008	0.00234799
12.7949	12.6516	0.0002643	0.00304746
12.7954	12.652	0.000201414	0.00427612
12.7958	12.6525	-0.00133587	0.00375005
12.7963	12.653	-0.000287139	0.00288947
12.7968	12.6534	0.000561663	0.0024274
12.7972	12.6539	0.000201414	0.00302583
12.7977	12.6544	0.000199345	0.00428857
12.7982	12.6549	-0.00127372	0.00360107
12.7987	12.6553	-0.000269001	0.00272755
12.7991	12.6558	0.000431218	0.00220427
12.7996	12.6563	0.000249497	0.00303657
12.8001	12.6568	0.000173806	0.00437871
12.8006	12.6573	-0.00126965	0.00366474
12.801	12.6577	-0.000414713	0.0027428
12.8015	12.6582	0.000567263	0.00243609
12.802	12.6587	0.000140526	0.0030509
12.8024	12.6591	0.000137993	0.00423564
12.8029	12.6596	-0.00124611	0.00374898
12.8034	12.6601	-0.000329551	0.00270667
12.8039	12.6605	0.000532717	0.00247099
12.8043	12.661	0.000224689	0.00319832
12.8048	12.6615	1.48419e-06	0.00437388
12.8053	12.662	-0.00126865	0.0035002
12.8057	12.6624	-0.000440787	0.0025767
12.8062	12.6629	0.000570063	0.00238069
12.8067	12.6633	5.02985e-05	0.00311924
12.8072	12.6638	5.85026e-05	0.00422785
12.8076	12.6643	-0.00111573	0.00364901
12.8081	12.6648	-0.00041498	0.00265422
12.8086	12.6652	0.000672026	0.0024632
12.8091	12.6657	6.53691e-05	0.00315022
12.8095	12.6662	-6.5272e-05	0.00429792
12.81	12.6667	-0.00111934	0.00362303
12.8105	12.6671	-0.000383305	0.00257949
12.8109	12.6676	0.00068303	0.00243781
12.8114	12.6681	-3.40609e-05	0.00324659
12.8119	12.6686	-3.07258e-05	0.00428578
12.8124	12.669	-0.00105492	0.00355592
12.8128	12.6695	-0.000428784	0.00248656
12.8133	12.6699	0.000797602	0.00268707
12.8138	12.6704	1.04195e-05	0.00331058
12.8142	12.6709	-0.000187709	0.00416762
12.8147	12.6714	-0.00102984	0.0035701
12.8152	12.6718	-0.000431317	0.0024646
12.8157	12.6723	0.000843348	0.0025899
12.8161	12.6728	5.20998e-05	0.00334746
12.8166	12.6732	-0.000201781	0.00430103
12.8171	12.6737	-0.000839381	0.0034857
12.8176	12.6742	-0.000448724	0.00247845
12.818	12.6746	0.000821875	0.00258727
12.8185	12.6751	3.75643e-05	0.00342965
12.819	12.6756	-0.000232457	0.00426726
12.8194	12.6761	-0.00086979	0.003517
12.8199	12.6766	-0.00055049	0.00248484
12.8204	12.677	0.000953319	0.0026198
12.8209	12.6775	-7.08723e-05	0.00343046
12.8213	12.678	-0.000349758	0.00424326
12.8218	12.6785	-0.000942146	0.00355313
12.8223	12.6789	-0.000437987	0.00234832
12.8227	12.6794	0.000914973	0.00253401
12.8232	12.6799	-6.11344e-05	0.00335262
12.8237	12.6803	-0.000467665	0.00430554
12.8242	12.6808	-0.000769825	0.00354068
12.8246	12.6813	-0.000449526	0.00236061
12.8251	12.6818	0.000928778	0.00270822
12.8256	12.6822	-1.02513e-05	0.00342203
12.8261	12.6827	-0.000497806	0.00428218
12.8265	12.6832	-0.000715143	0.00342423
12.827	12.6836	-0.000545621	0.00222983
12.8275	12.6841	0.00106782	0.00273985
12.8279	12.6846	-0.000216584	0.00349553
12.8284	12.6851	-0.000454859	0.00419237
12.8289	12.6856	-0.00086979	0.00360279
12.8294	12.686	-0.000615445	0.00231326
12.8298	12.6865	0.00113151	0.00266512
12.8303	12.687	-9.31481e-05	0.0035592
12.8308	12.6875	-0.000580899	0.00424965
12.8312	12.6879	-0.000615178	0.00353429
12.8317	12.6884	-0.000635117	0.00221082
12.8322	12.6889	0.00101107	0.00273625
12.8327	12.6893	-1.69215e-05	0.00349225
12.8331	12.6898	-0.000730945	0.00417771
12.8336	12.6903	-0.000685198	0.00340335
12.8341	12.6907	-0.000619244	0.00226703
12.8346	12.6912	0.000977325	0.00279589
12.835	12.6917	-8.00751e-05	0.00349397
12.8355	12.6922	-0.000665793	0.00418287
12.836	12.6926	-0.000505742	0.00343014
12.8364	12.6931	-0.0005855	0.00213051
12.8369	12.6935	0.000969923	0.00276443
12.8374	12.694	-0.000129888	0.00362352
12.8379	12.6945	-0.000879991	0.00411281
12.8383	12.695	-0.000545889	0.00335122
12.8388	12.6954	-0.000601106	0.00215977
12.8393	12.6959	0.000891164	0.00269749
12.8397	12.6964	-5.45354e-06	0.0036604
12.8402	12.6969	-0.000825042	0.00426571
12.8407	12.6973	-0.000453325	0.00326559
12.8412	12.6978	-0.000609042	0.00220524
12.8416	12.6983	0.000934378	0.00272723
12.8421	12.6988	-3.99286e-05	0.00377561
12.8426	12.6992	-0.000857519	0.00408306
12.8431	12.6997	-0.00050881	0.00335852
12.8435	12.7001	-0.000450793	0.00222033
12.844	12.7006	0.000889363	0.00269142
12.8445	12.7011	-6.06706e-05	0.00374136
12.8449	12.7016	-0.000934013	0.004077
12.8454	12.702	-0.000479668	0.0032919
12.8459	12.7025	-0.000528749	0.00217657
12.8464	12.703	0.000838747	0.00281581
12.8468	12.7034	3.4693e-05	0.0037616
12.8473	12.7039	-0.00109966	0.00408945
12.8478	12.7044	-0.000338022	0.00334762
12.8482	12.7049	-0.000353628	0.00226982
12.8487	12.7054	0.000755921	0.00282499
12.8492	12.7058	-2.76582e-05	0.00376176
12.8497	12.7063	-0.0010107	0.0040647
12.8501	12.7068	-0.00044159	0.0032992
12.8506	12.7073	-0.000227588	0.00216117
12.8511	12.7078	0.000792733	0.00271043
12.8516	12.7082	3.4693e-05	0.00389951
12.852	12.7087	-0.00114134	0.00393392
12.8525	12.7092	-0.000472801	0.00317046
12.853	12.7096	-0.000349829	0.00218608
12.8534	12.7101	0.000713706	0.00275353
12.8539	12.7106	-0.000132225	0.00403233
12.8544	12.7111	-0.00109246	0.00385141
12.8549	12.7115	-0.000364632	0.00324191
12.8553	12.712	-0.000253663	0.0021238
12.8558	12.7125	0.000716042	0.00297166
12.8563	12.7129	9.22463e-05	0.00395433
12.8567	12.7134	-0.0012277	0.00395277
12.8572	12.7139	-0.000249864	0.0031943
12.8577	12.7143	-0.000178774	0.00225318
12.8582	12.7148	0.000549589	0.00284883
12.8586	12.7153	0.000219552	0.00390746
12.8591	12.7158	-0.00130926	0.00395089
12.8596	12.7163	-0.000412448	0.0031113
12.8601	12.7167	-0.000137094	0.00218468
12.8605	12.7172	0.000509442	0.00294331
12.861	12.7177	0.000222353	0.00403512
12.8615	12.7182	-0.00136781	0.00388394
12.8619	12.7186	-0.000347493	0.00306958
12.8624	12.7191	-8.77442e-05	0.00235578
12.8629	12.7195	0.000461163	0.00288915
12.8634	12.72	0.000196545	0.00405397
12.8638	12.7205	-0.0014315	0.00389688
12.8643	12.721	-0.000321418	0.00292291
12.8648	12.7214	1.83561e-05	0.00223466
12.8652	12.7219	0.000522248	0.002962
12.8657	12.7224	0.000188074	0.00409912
12.8662	12.7228	-0.00150386	0.00383445
12.8667	12.7233	-0.000279738	0.00295142
12.8671	12.7237	-1.04843e-06	0.00224024
12.8676	12.7242	0.000425083	0.00292168
12.8681	12.7247	0.000133392	0.00417632
12.8686	12.7252	-0.00137955	0.00373497
12.869	12.7257	-0.000341625	0.00295749
12.8695	12.7261	0.000143861	0.00225286
12.87	12.7266	0.000535784	0.00295094
12.8704	12.7271	0.000221354	0.00419655
12.8709	12.7276	-0.00146724	0.0038156
12.8714	12.728	-0.000237326	0.00293709
12.8719	12.7285	3.82956e-05	0.00235406
12.8723	12.729	0.000396208	0.00298068
12.8728	12.7294	0.000173806	0.0041827
12.8733	12.7299	-0.00131513	0.00373448
12.8737	12.7304	-0.000169036	0.00282064
12.8742	12.7308	0.000226954	0.00239781
12.8747	12.7313	0.000353261	0.00294798
12.8752	12.7318	0.000227221	0.0040071
12.8756	12.7323	-0.00145551	0.00378634
12.8761	12.7327	-0.000367967	0.00290144
12.8766	12.7332	0.000243095	0.00232775
12.8771	12.7337	0.000154865	0.00290643
12.8775	12.7341	0.000198079	0.00427145
12.878	12.7346	-0.00132694	0.00365589
12.8785	12.7351	-0.000322417	0.00280164
12.8789	12.7356	0.000373468	0.00226982
12.8794	12.7361	0.000205213	0.00293741
12.8799	12.7365	0.000136459	0.00438494
12.8804	12.737	-0.00135067	0.00371473
12.8808	12.7375	-0.0003677	0.00281876
12.8813	12.738	0.000448625	0.00226687
12.8818	12.7385	9.25138e-05	0.0030559
12.8822	12.7389	0.000177605	0.00423752
12.8827	12.7394	-0.00127272	0.00374168
12.8832	12.7399	-0.000310146	0.00277222
12.8837	12.7403	0.000640886	0.00237693
12.8841	12.7408	0.000215682	0.00295872
12.8846	12.7413	6.18377e-05	0.00420123
12.8851	12.7417	-0.00125784	0.00365777
12.8856	12.7422	-0.000389173	0.00267553
12.886	12.7427	0.000523246	0.00234472
12.8865	12.7431	0.000197544	0.0031485
12.887	12.7436	8.71099e-05	0.00417836
12.8874	12.7441	-0.00127398	0.0036531
12.8879	12.7446	-0.000412911	0.00261546
12.8884	12.745	0.000607338	0.00233989
12.8889	12.7455	9.098e-05	0.00317824
12.8893	12.746	8.45773e-05	0.00425792
12.8898	12.7465	-0.00120116	0.00369572
12.8903	12.7469	-0.000390974	0.00266388
12.8907	12.7474	0.00062808	0.00236168
12.8912	12.7479	6.61716e-05	0.0031222
12.8917	12.7484	-8.74767e-05	0.00425121
12.8922	12.7488	-0.00113467	0.00363237
12.8926	12.7493	-0.000375101	0.0025186
12.8931	12.7498	0.000711173	0.00251877
12.8936	12.7502	2.60251e-05	0.00312515
12.8941	12.7507	-8.52115e-06	0.00419967
12.8945	12.7512	-0.00116842	0.00365835
12.895	12.7516	-0.000447725	0.00249697
12.8955	12.7521	0.000736446	0.00258571
12.8959	12.7526	2.29575e-05	0.00329066
12.8964	12.753	-0.000154768	0.00430709
12.8969	12.7535	-0.000971021	0.00365229
12.8974	12.754	-0.000440787	0.00247952
12.8978	12.7544	0.000846416	0.00245993
12.8983	12.7549	-1.94541e-05	0.00325469
12.8988	12.7554	-0.000178774	0.00420762
